# Velocity boundary layer depth time series
# <\delta_u(t)> averaged between 0.000000 and 2050.000000 with sampling frequency 2.000000
# time		 max(Re_uxRMS)in [0, H/2]	 z(max(Re_uxRMS)in [0, H/2])	  max(Re_uxRMS)in [H/2, H]	 z(max(Re_uxRMS)in [H/2, H])	 \delta_u[inst.]	  max(<Re_uxRMS>)in [0, H/2]	 z(max(<Re_uxRMS>)in [0, H/2])	  max(<Re_uxRMS>)in [H/2, H]	 z(max(<Re_uxRMS>)in [H/2, H])	 \delta_u[av.]	 
0.000000	 0.000000	 0.045000	 0.000000	 0.955000	 0.045000	 0.000000	 0.045000	 0.000000	 0.955000	 0.045000	 
2.000000	 0.156255	 0.055000	 0.156255	 0.945000	 0.055000	 0.078128	 0.055000	 0.078128	 0.945000	 0.055000	 
4.000000	 0.317040	 0.075000	 0.317040	 0.925000	 0.075000	 0.157683	 0.065000	 0.157683	 0.935000	 0.065000	 
6.000000	 0.487965	 0.085000	 0.487965	 0.915000	 0.085000	 0.240217	 0.075000	 0.240217	 0.925000	 0.075000	 
8.000000	 0.675866	 0.085000	 0.675866	 0.915000	 0.085000	 0.327162	 0.085000	 0.327162	 0.915000	 0.085000	 
10.000000	 0.887183	 0.095000	 0.887183	 0.905000	 0.095000	 0.420370	 0.085000	 0.420370	 0.915000	 0.085000	 
12.000000	 1.130312	 0.095000	 1.130312	 0.905000	 0.095000	 0.521371	 0.095000	 0.521371	 0.905000	 0.095000	 
14.000000	 1.413011	 0.095000	 1.413011	 0.905000	 0.095000	 0.632826	 0.095000	 0.632826	 0.905000	 0.095000	 
16.000000	 1.746409	 0.105000	 1.746409	 0.895000	 0.105000	 0.756422	 0.095000	 0.756422	 0.905000	 0.095000	 
18.000000	 2.141978	 0.105000	 2.141978	 0.895000	 0.105000	 0.894617	 0.095000	 0.894617	 0.905000	 0.095000	 
20.000000	 2.612469	 0.105000	 2.612469	 0.895000	 0.105000	 1.050188	 0.095000	 1.050188	 0.905000	 0.095000	 
22.000000	 3.173436	 0.105000	 3.173436	 0.895000	 0.105000	 1.227076	 0.105000	 1.227076	 0.895000	 0.105000	 
24.000000	 3.842890	 0.105000	 3.842890	 0.895000	 0.105000	 1.428292	 0.105000	 1.428292	 0.895000	 0.105000	 
26.000000	 4.641544	 0.105000	 4.641544	 0.895000	 0.105000	 1.657810	 0.105000	 1.657810	 0.895000	 0.105000	 
28.000000	 5.592986	 0.105000	 5.592986	 0.895000	 0.105000	 1.920155	 0.105000	 1.920155	 0.895000	 0.105000	 
30.000000	 6.723688	 0.105000	 6.723688	 0.895000	 0.105000	 2.220376	 0.105000	 2.220376	 0.895000	 0.105000	 
32.000000	 8.064104	 0.115000	 8.064104	 0.885000	 0.115000	 2.564046	 0.105000	 2.564046	 0.895000	 0.105000	 
34.000000	 9.645124	 0.115000	 9.645124	 0.885000	 0.115000	 2.957225	 0.105000	 2.957225	 0.895000	 0.105000	 
36.000000	 11.498175	 0.115000	 11.498175	 0.885000	 0.115000	 3.406373	 0.105000	 3.406373	 0.895000	 0.105000	 
38.000000	 13.653855	 0.115000	 13.653855	 0.885000	 0.115000	 3.918172	 0.105000	 3.918172	 0.895000	 0.105000	 
40.000000	 16.138083	 0.115000	 16.138083	 0.885000	 0.115000	 4.499251	 0.105000	 4.499251	 0.895000	 0.105000	 
42.000000	 18.967439	 0.115000	 18.967439	 0.885000	 0.115000	 5.156192	 0.115000	 5.156192	 0.885000	 0.115000	 
44.000000	 22.143089	 0.115000	 22.143089	 0.885000	 0.115000	 5.894753	 0.115000	 5.894753	 0.885000	 0.115000	 
46.000000	 25.643744	 0.115000	 25.643744	 0.885000	 0.115000	 6.717627	 0.115000	 6.717627	 0.885000	 0.115000	 
48.000000	 29.418885	 0.115000	 29.418885	 0.885000	 0.115000	 7.625678	 0.115000	 7.625678	 0.885000	 0.115000	 
50.000000	 33.384561	 0.115000	 33.384561	 0.885000	 0.115000	 8.616404	 0.115000	 8.616404	 0.885000	 0.115000	 
52.000000	 37.424907	 0.115000	 37.424906	 0.885000	 0.115000	 9.683385	 0.115000	 9.683385	 0.885000	 0.115000	 
54.000000	 41.402219	 0.115000	 41.402219	 0.885000	 0.115000	 10.816201	 0.115000	 10.816201	 0.885000	 0.115000	 
56.000000	 45.175859	 0.115000	 45.175859	 0.885000	 0.115000	 12.001017	 0.115000	 12.001017	 0.885000	 0.115000	 
58.000000	 48.625730	 0.115000	 48.625730	 0.885000	 0.115000	 13.221840	 0.115000	 13.221840	 0.885000	 0.115000	 
60.000000	 51.677462	 0.125000	 51.677462	 0.875000	 0.125000	 14.462195	 0.115000	 14.462195	 0.885000	 0.115000	 
62.000000	 54.341431	 0.125000	 54.341431	 0.875000	 0.125000	 15.706759	 0.115000	 15.706759	 0.885000	 0.115000	 
64.000000	 56.606960	 0.125000	 56.606960	 0.875000	 0.125000	 16.942551	 0.115000	 16.942551	 0.885000	 0.115000	 
66.000000	 58.519909	 0.125000	 58.519909	 0.875000	 0.125000	 18.159472	 0.115000	 18.159472	 0.885000	 0.115000	 
68.000000	 60.137973	 0.125000	 60.137973	 0.875000	 0.125000	 19.350274	 0.115000	 19.350274	 0.885000	 0.115000	 
70.000000	 61.604927	 0.135000	 61.604927	 0.865000	 0.135000	 20.516362	 0.125000	 20.516362	 0.875000	 0.125000	 
72.000000	 62.900016	 0.135000	 62.900017	 0.865000	 0.135000	 21.656680	 0.125000	 21.656680	 0.875000	 0.125000	 
74.000000	 64.066112	 0.145000	 64.066113	 0.855000	 0.145000	 22.764363	 0.125000	 22.764363	 0.875000	 0.125000	 
76.000000	 65.209934	 0.145000	 65.209935	 0.855000	 0.145000	 23.838876	 0.125000	 23.838876	 0.875000	 0.125000	 
78.000000	 66.262002	 0.145000	 66.262002	 0.855000	 0.145000	 24.880351	 0.125000	 24.880351	 0.875000	 0.125000	 
80.000000	 67.301263	 0.155000	 67.301263	 0.845000	 0.155000	 25.889379	 0.125000	 25.889379	 0.875000	 0.125000	 
82.000000	 68.302233	 0.155000	 68.302233	 0.845000	 0.155000	 26.868226	 0.135000	 26.868226	 0.865000	 0.135000	 
84.000000	 69.241969	 0.165000	 69.241970	 0.835000	 0.165000	 27.835262	 0.135000	 27.835262	 0.865000	 0.135000	 
86.000000	 70.190964	 0.165000	 70.190964	 0.835000	 0.165000	 28.774236	 0.135000	 28.774236	 0.865000	 0.135000	 
88.000000	 71.073029	 0.165000	 71.073030	 0.835000	 0.165000	 29.686044	 0.135000	 29.686044	 0.865000	 0.135000	 
90.000000	 71.888922	 0.165000	 71.888923	 0.835000	 0.165000	 30.571545	 0.135000	 30.571545	 0.865000	 0.135000	 
92.000000	 72.653086	 0.175000	 72.653086	 0.825000	 0.175000	 31.431522	 0.135000	 31.431522	 0.865000	 0.135000	 
94.000000	 73.376579	 0.175000	 73.376580	 0.825000	 0.175000	 32.270272	 0.145000	 32.270272	 0.855000	 0.145000	 
96.000000	 74.027492	 0.175000	 74.027492	 0.825000	 0.175000	 33.100491	 0.145000	 33.100491	 0.855000	 0.145000	 
98.000000	 74.606651	 0.175000	 74.606651	 0.825000	 0.175000	 33.907037	 0.145000	 33.907037	 0.855000	 0.145000	 
100.000000	 75.115513	 0.175000	 75.115513	 0.825000	 0.175000	 34.690212	 0.145000	 34.690212	 0.855000	 0.145000	 
102.000000	 75.556310	 0.175000	 75.556311	 0.825000	 0.175000	 35.450289	 0.145000	 35.450289	 0.855000	 0.145000	 
104.000000	 75.932122	 0.175000	 75.932122	 0.825000	 0.175000	 36.187534	 0.145000	 36.187535	 0.855000	 0.145000	 
106.000000	 76.246852	 0.175000	 76.246852	 0.825000	 0.175000	 36.902228	 0.145000	 36.902228	 0.855000	 0.145000	 
108.000000	 76.505142	 0.175000	 76.505142	 0.825000	 0.175000	 37.594680	 0.145000	 37.594680	 0.855000	 0.145000	 
110.000000	 76.712211	 0.175000	 76.712211	 0.825000	 0.175000	 38.279144	 0.155000	 38.279144	 0.845000	 0.155000	 
112.000000	 76.873657	 0.175000	 76.873658	 0.825000	 0.175000	 38.942692	 0.155000	 38.942692	 0.845000	 0.155000	 
114.000000	 76.995194	 0.175000	 76.995194	 0.825000	 0.175000	 39.584983	 0.155000	 39.584983	 0.845000	 0.155000	 
116.000000	 77.082513	 0.175000	 77.082513	 0.825000	 0.175000	 40.206534	 0.155000	 40.206534	 0.845000	 0.155000	 
118.000000	 77.152006	 0.185000	 77.152006	 0.815000	 0.185000	 40.807913	 0.155000	 40.807913	 0.845000	 0.155000	 
120.000000	 77.199236	 0.185000	 77.199237	 0.815000	 0.185000	 41.389735	 0.155000	 41.389735	 0.845000	 0.155000	 
122.000000	 77.227498	 0.185000	 77.227498	 0.815000	 0.185000	 41.952650	 0.155000	 41.952650	 0.845000	 0.155000	 
124.000000	 77.240822	 0.185000	 77.240823	 0.815000	 0.185000	 42.497333	 0.155000	 42.497333	 0.845000	 0.155000	 
126.000000	 77.242660	 0.185000	 77.242660	 0.815000	 0.185000	 43.024474	 0.155000	 43.024474	 0.845000	 0.155000	 
128.000000	 77.235894	 0.185000	 77.235895	 0.815000	 0.185000	 43.534766	 0.155000	 43.534766	 0.845000	 0.155000	 
130.000000	 77.222883	 0.185000	 77.222884	 0.815000	 0.185000	 44.028900	 0.155000	 44.028900	 0.845000	 0.155000	 
132.000000	 77.205509	 0.185000	 77.205509	 0.815000	 0.185000	 44.512922	 0.165000	 44.512922	 0.835000	 0.165000	 
134.000000	 77.185241	 0.185000	 77.185242	 0.815000	 0.185000	 44.986402	 0.165000	 44.986402	 0.835000	 0.165000	 
136.000000	 77.163203	 0.185000	 77.163204	 0.815000	 0.185000	 45.445559	 0.165000	 45.445559	 0.835000	 0.165000	 
138.000000	 77.140231	 0.185000	 77.140232	 0.815000	 0.185000	 45.891009	 0.165000	 45.891010	 0.835000	 0.165000	 
140.000000	 77.116935	 0.185000	 77.116936	 0.815000	 0.185000	 46.323343	 0.165000	 46.323343	 0.835000	 0.165000	 
142.000000	 77.093746	 0.185000	 77.093747	 0.815000	 0.185000	 46.743122	 0.165000	 46.743123	 0.835000	 0.165000	 
144.000000	 77.070962	 0.185000	 77.070963	 0.815000	 0.185000	 47.150883	 0.165000	 47.150884	 0.835000	 0.165000	 
146.000000	 77.048784	 0.185000	 77.048784	 0.815000	 0.185000	 47.547135	 0.165000	 47.547135	 0.835000	 0.165000	 
148.000000	 77.027337	 0.185000	 77.027338	 0.815000	 0.185000	 47.932361	 0.165000	 47.932361	 0.835000	 0.165000	 
150.000000	 77.006702	 0.185000	 77.006703	 0.815000	 0.185000	 48.307018	 0.165000	 48.307018	 0.835000	 0.165000	 
152.000000	 76.986921	 0.185000	 76.986922	 0.815000	 0.185000	 48.671541	 0.165000	 48.671541	 0.835000	 0.165000	 
154.000000	 76.968015	 0.185000	 76.968016	 0.815000	 0.185000	 49.026341	 0.165000	 49.026341	 0.835000	 0.165000	 
156.000000	 76.949988	 0.185000	 76.949989	 0.815000	 0.185000	 49.371809	 0.165000	 49.371809	 0.835000	 0.165000	 
158.000000	 76.932834	 0.185000	 76.932834	 0.815000	 0.185000	 49.708315	 0.165000	 49.708315	 0.835000	 0.165000	 
160.000000	 76.916537	 0.185000	 76.916537	 0.815000	 0.185000	 50.036209	 0.165000	 50.036209	 0.835000	 0.165000	 
162.000000	 76.901076	 0.185000	 76.901076	 0.815000	 0.185000	 50.355824	 0.165000	 50.355824	 0.835000	 0.165000	 
164.000000	 76.886425	 0.185000	 76.886426	 0.815000	 0.185000	 50.667477	 0.165000	 50.667478	 0.835000	 0.165000	 
166.000000	 76.872556	 0.185000	 76.872556	 0.815000	 0.185000	 50.971469	 0.165000	 50.971469	 0.835000	 0.165000	 
168.000000	 76.859434	 0.185000	 76.859434	 0.815000	 0.185000	 51.268083	 0.165000	 51.268083	 0.835000	 0.165000	 
170.000000	 76.847024	 0.185000	 76.847025	 0.815000	 0.185000	 51.557592	 0.165000	 51.557593	 0.835000	 0.165000	 
172.000000	 76.835289	 0.185000	 76.835290	 0.815000	 0.185000	 51.840254	 0.165000	 51.840255	 0.835000	 0.165000	 
174.000000	 76.824191	 0.185000	 76.824192	 0.815000	 0.185000	 52.118512	 0.175000	 52.118513	 0.825000	 0.175000	 
176.000000	 76.813692	 0.185000	 76.813692	 0.815000	 0.185000	 52.393569	 0.175000	 52.393569	 0.825000	 0.175000	 
178.000000	 76.803752	 0.185000	 76.803753	 0.815000	 0.185000	 52.662381	 0.175000	 52.662381	 0.825000	 0.175000	 
180.000000	 76.794336	 0.185000	 76.794337	 0.815000	 0.185000	 52.925161	 0.175000	 52.925162	 0.825000	 0.175000	 
182.000000	 76.785408	 0.185000	 76.785409	 0.815000	 0.185000	 53.182114	 0.175000	 53.182115	 0.825000	 0.175000	 
184.000000	 76.776935	 0.185000	 76.776936	 0.815000	 0.185000	 53.433434	 0.175000	 53.433434	 0.825000	 0.175000	 
186.000000	 76.768887	 0.185000	 76.768888	 0.815000	 0.185000	 53.679307	 0.175000	 53.679307	 0.825000	 0.175000	 
188.000000	 76.761237	 0.185000	 76.761238	 0.815000	 0.185000	 53.919909	 0.175000	 53.919909	 0.825000	 0.175000	 
190.000000	 76.753959	 0.185000	 76.753960	 0.815000	 0.185000	 54.155411	 0.175000	 54.155412	 0.825000	 0.175000	 
192.000000	 76.747030	 0.185000	 76.747031	 0.815000	 0.185000	 54.385976	 0.175000	 54.385976	 0.825000	 0.175000	 
194.000000	 76.740432	 0.185000	 76.740433	 0.815000	 0.185000	 54.611758	 0.175000	 54.611758	 0.825000	 0.175000	 
196.000000	 76.734147	 0.185000	 76.734148	 0.815000	 0.185000	 54.832907	 0.175000	 54.832907	 0.825000	 0.175000	 
198.000000	 76.728159	 0.185000	 76.728160	 0.815000	 0.185000	 55.049565	 0.175000	 55.049565	 0.825000	 0.175000	 
200.000000	 76.722456	 0.185000	 76.722457	 0.815000	 0.185000	 55.261869	 0.175000	 55.261869	 0.825000	 0.175000	 
202.000000	 76.717024	 0.185000	 76.717025	 0.815000	 0.185000	 55.469951	 0.175000	 55.469951	 0.825000	 0.175000	 
204.000000	 76.711854	 0.185000	 76.711856	 0.815000	 0.185000	 55.673936	 0.175000	 55.673937	 0.825000	 0.175000	 
206.000000	 76.706937	 0.185000	 76.706938	 0.815000	 0.185000	 55.873946	 0.175000	 55.873947	 0.825000	 0.175000	 
208.000000	 76.702262	 0.185000	 76.702263	 0.815000	 0.185000	 56.070098	 0.175000	 56.070098	 0.825000	 0.175000	 
210.000000	 76.697822	 0.185000	 76.697823	 0.815000	 0.185000	 56.262502	 0.175000	 56.262502	 0.825000	 0.175000	 
212.000000	 76.693609	 0.185000	 76.693610	 0.815000	 0.185000	 56.451267	 0.175000	 56.451267	 0.825000	 0.175000	 
214.000000	 76.689616	 0.185000	 76.689617	 0.815000	 0.185000	 56.636496	 0.175000	 56.636496	 0.825000	 0.175000	 
216.000000	 76.685834	 0.185000	 76.685836	 0.815000	 0.185000	 56.818288	 0.175000	 56.818288	 0.825000	 0.175000	 
218.000000	 76.682258	 0.185000	 76.682259	 0.815000	 0.185000	 56.996739	 0.175000	 56.996740	 0.825000	 0.175000	 
220.000000	 76.678879	 0.185000	 76.678880	 0.815000	 0.185000	 57.171943	 0.175000	 57.171943	 0.825000	 0.175000	 
222.000000	 76.675690	 0.185000	 76.675692	 0.815000	 0.185000	 57.343987	 0.175000	 57.343987	 0.825000	 0.175000	 
224.000000	 76.672685	 0.185000	 76.672686	 0.815000	 0.185000	 57.512957	 0.175000	 57.512958	 0.825000	 0.175000	 
226.000000	 76.669855	 0.185000	 76.669857	 0.815000	 0.185000	 57.678936	 0.175000	 57.678937	 0.825000	 0.175000	 
228.000000	 76.667194	 0.185000	 76.667196	 0.815000	 0.185000	 57.842004	 0.175000	 57.842005	 0.825000	 0.175000	 
230.000000	 76.664695	 0.185000	 76.664697	 0.815000	 0.185000	 58.002237	 0.175000	 58.002238	 0.825000	 0.175000	 
232.000000	 76.662350	 0.185000	 76.662352	 0.815000	 0.185000	 58.159710	 0.175000	 58.159711	 0.825000	 0.175000	 
234.000000	 76.660153	 0.185000	 76.660154	 0.815000	 0.185000	 58.314494	 0.175000	 58.314495	 0.825000	 0.175000	 
236.000000	 76.658095	 0.185000	 76.658097	 0.815000	 0.185000	 58.466659	 0.175000	 58.466659	 0.825000	 0.175000	 
238.000000	 76.656171	 0.185000	 76.656173	 0.815000	 0.185000	 58.616270	 0.175000	 58.616270	 0.825000	 0.175000	 
240.000000	 76.654374	 0.185000	 76.654376	 0.815000	 0.185000	 58.763392	 0.175000	 58.763393	 0.825000	 0.175000	 
242.000000	 76.652697	 0.185000	 76.652699	 0.815000	 0.185000	 58.908088	 0.175000	 58.908089	 0.825000	 0.175000	 
244.000000	 76.651133	 0.185000	 76.651136	 0.815000	 0.185000	 59.050418	 0.175000	 59.050419	 0.825000	 0.175000	 
246.000000	 76.649677	 0.185000	 76.649679	 0.815000	 0.185000	 59.190440	 0.175000	 59.190441	 0.825000	 0.175000	 
248.000000	 76.648322	 0.185000	 76.648325	 0.815000	 0.185000	 59.328210	 0.175000	 59.328211	 0.825000	 0.175000	 
250.000000	 76.647063	 0.185000	 76.647065	 0.815000	 0.185000	 59.463783	 0.175000	 59.463784	 0.825000	 0.175000	 
252.000000	 76.645893	 0.185000	 76.645895	 0.815000	 0.185000	 59.597211	 0.175000	 59.597212	 0.825000	 0.175000	 
254.000000	 76.644807	 0.185000	 76.644810	 0.815000	 0.185000	 59.728546	 0.175000	 59.728546	 0.825000	 0.175000	 
256.000000	 76.643800	 0.185000	 76.643803	 0.815000	 0.185000	 59.857836	 0.175000	 59.857836	 0.825000	 0.175000	 
258.000000	 76.642868	 0.185000	 76.642870	 0.815000	 0.185000	 59.985129	 0.175000	 59.985130	 0.825000	 0.175000	 
260.000000	 76.642004	 0.185000	 76.642007	 0.815000	 0.185000	 60.110472	 0.175000	 60.110473	 0.825000	 0.175000	 
262.000000	 76.641206	 0.185000	 76.641209	 0.815000	 0.185000	 60.233910	 0.175000	 60.233911	 0.825000	 0.175000	 
264.000000	 76.640467	 0.185000	 76.640470	 0.815000	 0.185000	 60.355486	 0.175000	 60.355487	 0.825000	 0.175000	 
266.000000	 76.639785	 0.185000	 76.639788	 0.815000	 0.185000	 60.475242	 0.175000	 60.475243	 0.825000	 0.175000	 
268.000000	 76.639156	 0.185000	 76.639159	 0.815000	 0.185000	 60.593219	 0.175000	 60.593220	 0.825000	 0.175000	 
270.000000	 76.638575	 0.185000	 76.638578	 0.815000	 0.185000	 60.709456	 0.175000	 60.709457	 0.825000	 0.175000	 
272.000000	 76.638039	 0.185000	 76.638043	 0.815000	 0.185000	 60.823993	 0.175000	 60.823994	 0.825000	 0.175000	 
274.000000	 76.637546	 0.185000	 76.637549	 0.815000	 0.185000	 60.936866	 0.175000	 60.936867	 0.825000	 0.175000	 
276.000000	 76.637091	 0.185000	 76.637095	 0.815000	 0.185000	 61.048111	 0.175000	 61.048112	 0.825000	 0.175000	 
278.000000	 76.636673	 0.185000	 76.636676	 0.815000	 0.185000	 61.157765	 0.175000	 61.157765	 0.825000	 0.175000	 
280.000000	 76.636288	 0.185000	 76.636291	 0.815000	 0.185000	 61.265860	 0.175000	 61.265860	 0.825000	 0.175000	 
282.000000	 76.635934	 0.185000	 76.635937	 0.815000	 0.185000	 61.372430	 0.175000	 61.372431	 0.825000	 0.175000	 
284.000000	 76.635608	 0.185000	 76.635612	 0.815000	 0.185000	 61.477507	 0.175000	 61.477508	 0.825000	 0.175000	 
286.000000	 76.635309	 0.185000	 76.635313	 0.815000	 0.185000	 61.581122	 0.175000	 61.581123	 0.825000	 0.175000	 
288.000000	 76.635034	 0.185000	 76.635039	 0.815000	 0.185000	 61.683307	 0.175000	 61.683308	 0.825000	 0.175000	 
290.000000	 76.634782	 0.185000	 76.634786	 0.815000	 0.185000	 61.784090	 0.175000	 61.784091	 0.825000	 0.175000	 
292.000000	 76.634551	 0.185000	 76.634555	 0.815000	 0.185000	 61.883500	 0.175000	 61.883501	 0.825000	 0.175000	 
294.000000	 76.634339	 0.185000	 76.634343	 0.815000	 0.185000	 61.981946	 0.185000	 61.981947	 0.815000	 0.185000	 
296.000000	 76.634144	 0.185000	 76.634149	 0.815000	 0.185000	 62.080283	 0.185000	 62.080284	 0.815000	 0.185000	 
298.000000	 76.633966	 0.185000	 76.633970	 0.815000	 0.185000	 62.177308	 0.185000	 62.177309	 0.815000	 0.185000	 
300.000000	 76.633802	 0.185000	 76.633807	 0.815000	 0.185000	 62.273046	 0.185000	 62.273047	 0.815000	 0.185000	 
302.000000	 76.633652	 0.185000	 76.633657	 0.815000	 0.185000	 62.367524	 0.185000	 62.367525	 0.815000	 0.185000	 
304.000000	 76.633515	 0.185000	 76.633520	 0.815000	 0.185000	 62.460766	 0.185000	 62.460767	 0.815000	 0.185000	 
306.000000	 76.633389	 0.185000	 76.633395	 0.815000	 0.185000	 62.552796	 0.185000	 62.552797	 0.815000	 0.185000	 
308.000000	 76.633274	 0.185000	 76.633280	 0.815000	 0.185000	 62.643637	 0.185000	 62.643639	 0.815000	 0.185000	 
310.000000	 76.633169	 0.185000	 76.633175	 0.815000	 0.185000	 62.733314	 0.185000	 62.733315	 0.815000	 0.185000	 
312.000000	 76.633073	 0.185000	 76.633079	 0.815000	 0.185000	 62.821847	 0.185000	 62.821849	 0.815000	 0.185000	 
314.000000	 76.632985	 0.185000	 76.632991	 0.815000	 0.185000	 62.909260	 0.185000	 62.909261	 0.815000	 0.185000	 
316.000000	 76.632904	 0.185000	 76.632910	 0.815000	 0.185000	 62.995572	 0.185000	 62.995573	 0.815000	 0.185000	 
318.000000	 76.632830	 0.185000	 76.632837	 0.815000	 0.185000	 63.080805	 0.185000	 63.080806	 0.815000	 0.185000	 
320.000000	 76.632763	 0.185000	 76.632769	 0.815000	 0.185000	 63.164978	 0.185000	 63.164980	 0.815000	 0.185000	 
322.000000	 76.632701	 0.185000	 76.632708	 0.815000	 0.185000	 63.248113	 0.185000	 63.248114	 0.815000	 0.185000	 
324.000000	 76.632645	 0.185000	 76.632651	 0.815000	 0.185000	 63.330226	 0.185000	 63.330228	 0.815000	 0.185000	 
326.000000	 76.632593	 0.185000	 76.632600	 0.815000	 0.185000	 63.411338	 0.185000	 63.411340	 0.815000	 0.185000	 
328.000000	 76.632546	 0.185000	 76.632553	 0.815000	 0.185000	 63.491467	 0.185000	 63.491468	 0.815000	 0.185000	 
330.000000	 76.632502	 0.185000	 76.632510	 0.815000	 0.185000	 63.570630	 0.185000	 63.570631	 0.815000	 0.185000	 
332.000000	 76.632463	 0.185000	 76.632470	 0.815000	 0.185000	 63.648844	 0.185000	 63.648846	 0.815000	 0.185000	 
334.000000	 76.632426	 0.185000	 76.632434	 0.815000	 0.185000	 63.726127	 0.185000	 63.726129	 0.815000	 0.185000	 
336.000000	 76.632393	 0.185000	 76.632401	 0.815000	 0.185000	 63.802496	 0.185000	 63.802498	 0.815000	 0.185000	 
338.000000	 76.632363	 0.185000	 76.632371	 0.815000	 0.185000	 63.877966	 0.185000	 63.877967	 0.815000	 0.185000	 
340.000000	 76.632334	 0.185000	 76.632343	 0.815000	 0.185000	 63.952553	 0.185000	 63.952554	 0.815000	 0.185000	 
342.000000	 76.632309	 0.185000	 76.632317	 0.815000	 0.185000	 64.026272	 0.185000	 64.026274	 0.815000	 0.185000	 
344.000000	 76.632285	 0.185000	 76.632294	 0.815000	 0.185000	 64.099139	 0.185000	 64.099141	 0.815000	 0.185000	 
346.000000	 76.632263	 0.185000	 76.632272	 0.815000	 0.185000	 64.171169	 0.185000	 64.171171	 0.815000	 0.185000	 
348.000000	 76.632242	 0.185000	 76.632252	 0.815000	 0.185000	 64.242375	 0.185000	 64.242377	 0.815000	 0.185000	 
350.000000	 76.632223	 0.185000	 76.632233	 0.815000	 0.185000	 64.312772	 0.185000	 64.312774	 0.815000	 0.185000	 
352.000000	 76.632206	 0.185000	 76.632216	 0.815000	 0.185000	 64.382373	 0.185000	 64.382375	 0.815000	 0.185000	 
354.000000	 76.632189	 0.185000	 76.632200	 0.815000	 0.185000	 64.451192	 0.185000	 64.451194	 0.815000	 0.185000	 
356.000000	 76.632174	 0.185000	 76.632185	 0.815000	 0.185000	 64.519242	 0.185000	 64.519244	 0.815000	 0.185000	 
358.000000	 76.632159	 0.185000	 76.632171	 0.815000	 0.185000	 64.586536	 0.185000	 64.586539	 0.815000	 0.185000	 
360.000000	 76.632146	 0.185000	 76.632157	 0.815000	 0.185000	 64.653087	 0.185000	 64.653089	 0.815000	 0.185000	 
362.000000	 76.632133	 0.185000	 76.632145	 0.815000	 0.185000	 64.718906	 0.185000	 64.718908	 0.815000	 0.185000	 
364.000000	 76.632121	 0.185000	 76.632133	 0.815000	 0.185000	 64.784005	 0.185000	 64.784007	 0.815000	 0.185000	 
366.000000	 76.632109	 0.185000	 76.632121	 0.815000	 0.185000	 64.848397	 0.185000	 64.848399	 0.815000	 0.185000	 
368.000000	 76.632098	 0.185000	 76.632111	 0.815000	 0.185000	 64.912093	 0.185000	 64.912095	 0.815000	 0.185000	 
370.000000	 76.632087	 0.185000	 76.632100	 0.815000	 0.185000	 64.975103	 0.185000	 64.975106	 0.815000	 0.185000	 
372.000000	 76.632076	 0.185000	 76.632090	 0.815000	 0.185000	 65.037440	 0.185000	 65.037443	 0.815000	 0.185000	 
374.000000	 76.632066	 0.185000	 76.632080	 0.815000	 0.185000	 65.099114	 0.185000	 65.099116	 0.815000	 0.185000	 
376.000000	 76.632056	 0.185000	 76.632070	 0.815000	 0.185000	 65.160135	 0.185000	 65.160137	 0.815000	 0.185000	 
378.000000	 76.632046	 0.185000	 76.632061	 0.815000	 0.185000	 65.220513	 0.185000	 65.220516	 0.815000	 0.185000	 
380.000000	 76.632036	 0.185000	 76.632051	 0.815000	 0.185000	 65.280259	 0.185000	 65.280262	 0.815000	 0.185000	 
382.000000	 76.632026	 0.185000	 76.632042	 0.815000	 0.185000	 65.339383	 0.185000	 65.339386	 0.815000	 0.185000	 
384.000000	 76.632016	 0.185000	 76.632033	 0.815000	 0.185000	 65.397894	 0.185000	 65.397897	 0.815000	 0.185000	 
386.000000	 76.632006	 0.185000	 76.632023	 0.815000	 0.185000	 65.455802	 0.185000	 65.455805	 0.815000	 0.185000	 
388.000000	 76.631996	 0.185000	 76.632014	 0.815000	 0.185000	 65.513116	 0.185000	 65.513119	 0.815000	 0.185000	 
390.000000	 76.631986	 0.185000	 76.632004	 0.815000	 0.185000	 65.569845	 0.185000	 65.569848	 0.815000	 0.185000	 
392.000000	 76.631976	 0.185000	 76.631995	 0.815000	 0.185000	 65.625998	 0.185000	 65.626001	 0.815000	 0.185000	 
394.000000	 76.631966	 0.185000	 76.631985	 0.815000	 0.185000	 65.681583	 0.185000	 65.681587	 0.815000	 0.185000	 
396.000000	 76.631955	 0.185000	 76.631975	 0.815000	 0.185000	 65.736610	 0.185000	 65.736614	 0.815000	 0.185000	 
398.000000	 76.631944	 0.185000	 76.631964	 0.815000	 0.185000	 65.791087	 0.185000	 65.791090	 0.815000	 0.185000	 
400.000000	 76.631933	 0.185000	 76.631954	 0.815000	 0.185000	 65.845022	 0.185000	 65.845025	 0.815000	 0.185000	 
402.000000	 76.631922	 0.185000	 76.631943	 0.815000	 0.185000	 65.898422	 0.185000	 65.898426	 0.815000	 0.185000	 
404.000000	 76.631910	 0.185000	 76.631932	 0.815000	 0.185000	 65.951296	 0.185000	 65.951300	 0.815000	 0.185000	 
406.000000	 76.631898	 0.185000	 76.631921	 0.815000	 0.185000	 66.003652	 0.185000	 66.003656	 0.815000	 0.185000	 
408.000000	 76.631886	 0.185000	 76.631909	 0.815000	 0.185000	 66.055497	 0.185000	 66.055501	 0.815000	 0.185000	 
410.000000	 76.631874	 0.185000	 76.631897	 0.815000	 0.185000	 66.106839	 0.185000	 66.106843	 0.815000	 0.185000	 
412.000000	 76.631860	 0.185000	 76.631885	 0.815000	 0.185000	 66.157684	 0.185000	 66.157689	 0.815000	 0.185000	 
414.000000	 76.631847	 0.185000	 76.631872	 0.815000	 0.185000	 66.208041	 0.185000	 66.208045	 0.815000	 0.185000	 
416.000000	 76.631833	 0.185000	 76.631859	 0.815000	 0.185000	 66.257916	 0.185000	 66.257920	 0.815000	 0.185000	 
418.000000	 76.631819	 0.185000	 76.631845	 0.815000	 0.185000	 66.307315	 0.185000	 66.307320	 0.815000	 0.185000	 
420.000000	 76.631804	 0.185000	 76.631831	 0.815000	 0.185000	 66.356246	 0.185000	 66.356251	 0.815000	 0.185000	 
422.000000	 76.631788	 0.185000	 76.631817	 0.815000	 0.185000	 66.404716	 0.185000	 66.404721	 0.815000	 0.185000	 
424.000000	 76.631772	 0.185000	 76.631802	 0.815000	 0.185000	 66.452730	 0.185000	 66.452735	 0.815000	 0.185000	 
426.000000	 76.631756	 0.185000	 76.631786	 0.815000	 0.185000	 66.500296	 0.185000	 66.500301	 0.815000	 0.185000	 
428.000000	 76.631739	 0.185000	 76.631770	 0.815000	 0.185000	 66.547419	 0.185000	 66.547424	 0.815000	 0.185000	 
430.000000	 76.631721	 0.185000	 76.631753	 0.815000	 0.185000	 66.594105	 0.185000	 66.594110	 0.815000	 0.185000	 
432.000000	 76.631703	 0.185000	 76.631736	 0.815000	 0.185000	 66.640362	 0.185000	 66.640367	 0.815000	 0.185000	 
434.000000	 76.631684	 0.185000	 76.631718	 0.815000	 0.185000	 66.686193	 0.185000	 66.686199	 0.815000	 0.185000	 
436.000000	 76.631665	 0.185000	 76.631699	 0.815000	 0.185000	 66.731606	 0.185000	 66.731612	 0.815000	 0.185000	 
438.000000	 76.631644	 0.185000	 76.631680	 0.815000	 0.185000	 66.776607	 0.185000	 66.776612	 0.815000	 0.185000	 
440.000000	 76.631624	 0.185000	 76.631660	 0.815000	 0.185000	 66.821199	 0.185000	 66.821205	 0.815000	 0.185000	 
442.000000	 76.631602	 0.185000	 76.631639	 0.815000	 0.185000	 66.865390	 0.185000	 66.865396	 0.815000	 0.185000	 
444.000000	 76.631579	 0.185000	 76.631618	 0.815000	 0.185000	 66.909185	 0.185000	 66.909191	 0.815000	 0.185000	 
446.000000	 76.631556	 0.185000	 76.631596	 0.815000	 0.185000	 66.952588	 0.185000	 66.952595	 0.815000	 0.185000	 
448.000000	 76.631532	 0.185000	 76.631573	 0.815000	 0.185000	 66.995606	 0.185000	 66.995612	 0.815000	 0.185000	 
450.000000	 76.631507	 0.185000	 76.631549	 0.815000	 0.185000	 67.038243	 0.185000	 67.038249	 0.815000	 0.185000	 
452.000000	 76.631481	 0.185000	 76.631524	 0.815000	 0.185000	 67.080504	 0.185000	 67.080510	 0.815000	 0.185000	 
454.000000	 76.631455	 0.185000	 76.631499	 0.815000	 0.185000	 67.122394	 0.185000	 67.122401	 0.815000	 0.185000	 
456.000000	 76.631427	 0.185000	 76.631472	 0.815000	 0.185000	 67.163918	 0.185000	 67.163925	 0.815000	 0.185000	 
458.000000	 76.631398	 0.185000	 76.631445	 0.815000	 0.185000	 67.205081	 0.185000	 67.205088	 0.815000	 0.185000	 
460.000000	 76.631369	 0.185000	 76.631416	 0.815000	 0.185000	 67.245887	 0.185000	 67.245895	 0.815000	 0.185000	 
462.000000	 76.631338	 0.185000	 76.631387	 0.815000	 0.185000	 67.286342	 0.185000	 67.286349	 0.815000	 0.185000	 
464.000000	 76.631306	 0.185000	 76.631356	 0.815000	 0.185000	 67.326449	 0.185000	 67.326457	 0.815000	 0.185000	 
466.000000	 76.631273	 0.185000	 76.631324	 0.815000	 0.185000	 67.366213	 0.185000	 67.366221	 0.815000	 0.185000	 
468.000000	 76.631239	 0.185000	 76.631291	 0.815000	 0.185000	 67.405639	 0.185000	 67.405647	 0.815000	 0.185000	 
470.000000	 76.631204	 0.185000	 76.631257	 0.815000	 0.185000	 67.444730	 0.185000	 67.444739	 0.815000	 0.185000	 
472.000000	 76.631168	 0.185000	 76.631222	 0.815000	 0.185000	 67.483492	 0.185000	 67.483500	 0.815000	 0.185000	 
474.000000	 76.631130	 0.185000	 76.631186	 0.815000	 0.185000	 67.521927	 0.185000	 67.521936	 0.815000	 0.185000	 
476.000000	 76.631091	 0.185000	 76.631148	 0.815000	 0.185000	 67.560041	 0.185000	 67.560050	 0.815000	 0.185000	 
478.000000	 76.631050	 0.185000	 76.631109	 0.815000	 0.185000	 67.597837	 0.185000	 67.597846	 0.815000	 0.185000	 
480.000000	 76.631008	 0.185000	 76.631068	 0.815000	 0.185000	 67.635319	 0.185000	 67.635328	 0.815000	 0.185000	 
482.000000	 76.630965	 0.185000	 76.631026	 0.815000	 0.185000	 67.672491	 0.185000	 67.672500	 0.815000	 0.185000	 
484.000000	 76.630920	 0.185000	 76.630982	 0.815000	 0.185000	 67.709357	 0.185000	 67.709366	 0.815000	 0.185000	 
486.000000	 76.630873	 0.185000	 76.630937	 0.815000	 0.185000	 67.745920	 0.185000	 67.745930	 0.815000	 0.185000	 
488.000000	 76.630825	 0.185000	 76.630891	 0.815000	 0.185000	 67.782185	 0.185000	 67.782195	 0.815000	 0.185000	 
490.000000	 76.630775	 0.185000	 76.630842	 0.815000	 0.185000	 67.818155	 0.185000	 67.818166	 0.815000	 0.185000	 
492.000000	 76.630724	 0.185000	 76.630792	 0.815000	 0.185000	 67.853833	 0.185000	 67.853844	 0.815000	 0.185000	 
494.000000	 76.630670	 0.185000	 76.630740	 0.815000	 0.185000	 67.889224	 0.185000	 67.889235	 0.815000	 0.185000	 
496.000000	 76.630615	 0.185000	 76.630686	 0.815000	 0.185000	 67.924330	 0.185000	 67.924341	 0.815000	 0.185000	 
498.000000	 76.630557	 0.185000	 76.630631	 0.815000	 0.185000	 67.959155	 0.185000	 67.959166	 0.815000	 0.185000	 
500.000000	 76.630498	 0.185000	 76.630573	 0.815000	 0.185000	 67.993702	 0.185000	 67.993714	 0.815000	 0.185000	 
502.000000	 76.630436	 0.185000	 76.630513	 0.815000	 0.185000	 68.027975	 0.185000	 68.027987	 0.815000	 0.185000	 
504.000000	 76.630373	 0.185000	 76.630452	 0.815000	 0.185000	 68.061976	 0.185000	 68.061989	 0.815000	 0.185000	 
506.000000	 76.630307	 0.185000	 76.630388	 0.815000	 0.185000	 68.095710	 0.185000	 68.095722	 0.815000	 0.185000	 
508.000000	 76.630239	 0.185000	 76.630321	 0.815000	 0.185000	 68.129179	 0.185000	 68.129191	 0.815000	 0.185000	 
510.000000	 76.630168	 0.185000	 76.630253	 0.815000	 0.185000	 68.162386	 0.185000	 68.162399	 0.815000	 0.185000	 
512.000000	 76.630095	 0.185000	 76.630181	 0.815000	 0.185000	 68.195334	 0.185000	 68.195347	 0.815000	 0.185000	 
514.000000	 76.630019	 0.185000	 76.630108	 0.815000	 0.185000	 68.228027	 0.185000	 68.228040	 0.815000	 0.185000	 
516.000000	 76.629941	 0.185000	 76.630032	 0.815000	 0.185000	 68.260466	 0.185000	 68.260480	 0.815000	 0.185000	 
518.000000	 76.629859	 0.185000	 76.629953	 0.815000	 0.185000	 68.292656	 0.185000	 68.292671	 0.815000	 0.185000	 
520.000000	 76.629775	 0.185000	 76.629871	 0.815000	 0.185000	 68.324599	 0.185000	 68.324614	 0.815000	 0.185000	 
522.000000	 76.629688	 0.185000	 76.629786	 0.815000	 0.185000	 68.356298	 0.185000	 68.356313	 0.815000	 0.185000	 
524.000000	 76.629598	 0.185000	 76.629698	 0.815000	 0.185000	 68.387756	 0.185000	 68.387771	 0.815000	 0.185000	 
526.000000	 76.629505	 0.185000	 76.629607	 0.815000	 0.185000	 68.418974	 0.185000	 68.418990	 0.815000	 0.185000	 
528.000000	 76.629408	 0.185000	 76.629513	 0.815000	 0.185000	 68.449957	 0.185000	 68.449973	 0.815000	 0.185000	 
530.000000	 76.629308	 0.185000	 76.629416	 0.815000	 0.185000	 68.480706	 0.185000	 68.480723	 0.815000	 0.185000	 
532.000000	 76.629204	 0.185000	 76.629315	 0.815000	 0.185000	 68.511225	 0.185000	 68.511242	 0.815000	 0.185000	 
534.000000	 76.629097	 0.185000	 76.629210	 0.815000	 0.185000	 68.541516	 0.185000	 68.541533	 0.815000	 0.185000	 
536.000000	 76.628986	 0.185000	 76.629102	 0.815000	 0.185000	 68.571581	 0.185000	 68.571598	 0.815000	 0.185000	 
538.000000	 76.628871	 0.185000	 76.628990	 0.815000	 0.185000	 68.601423	 0.185000	 68.601440	 0.815000	 0.185000	 
540.000000	 76.628752	 0.185000	 76.628874	 0.815000	 0.185000	 68.631044	 0.185000	 68.631062	 0.815000	 0.185000	 
542.000000	 76.628629	 0.185000	 76.628754	 0.815000	 0.185000	 68.660447	 0.185000	 68.660465	 0.815000	 0.185000	 
544.000000	 76.628501	 0.185000	 76.628629	 0.815000	 0.185000	 68.689634	 0.185000	 68.689652	 0.815000	 0.185000	 
546.000000	 76.628369	 0.185000	 76.628501	 0.815000	 0.185000	 68.718607	 0.185000	 68.718626	 0.815000	 0.185000	 
548.000000	 76.628232	 0.185000	 76.628367	 0.815000	 0.185000	 68.747369	 0.185000	 68.747389	 0.815000	 0.185000	 
550.000000	 76.628091	 0.185000	 76.628229	 0.815000	 0.185000	 68.775923	 0.185000	 68.775943	 0.815000	 0.185000	 
552.000000	 76.627944	 0.185000	 76.628086	 0.815000	 0.185000	 68.804269	 0.185000	 68.804290	 0.815000	 0.185000	 
554.000000	 76.627792	 0.185000	 76.627938	 0.815000	 0.185000	 68.832411	 0.185000	 68.832432	 0.815000	 0.185000	 
556.000000	 76.627635	 0.185000	 76.627784	 0.815000	 0.185000	 68.860351	 0.185000	 68.860373	 0.815000	 0.185000	 
558.000000	 76.627473	 0.185000	 76.627625	 0.815000	 0.185000	 68.888091	 0.185000	 68.888113	 0.815000	 0.185000	 
560.000000	 76.627304	 0.185000	 76.627461	 0.815000	 0.185000	 68.915633	 0.185000	 68.915655	 0.815000	 0.185000	 
562.000000	 76.627130	 0.185000	 76.627291	 0.815000	 0.185000	 68.942979	 0.185000	 68.943001	 0.815000	 0.185000	 
564.000000	 76.626950	 0.185000	 76.627114	 0.815000	 0.185000	 68.970130	 0.185000	 68.970154	 0.815000	 0.185000	 
566.000000	 76.626763	 0.185000	 76.626931	 0.815000	 0.185000	 68.997090	 0.185000	 68.997114	 0.815000	 0.185000	 
568.000000	 76.626570	 0.185000	 76.626742	 0.815000	 0.185000	 69.023860	 0.185000	 69.023885	 0.815000	 0.185000	 
570.000000	 76.626369	 0.185000	 76.626547	 0.815000	 0.185000	 69.050443	 0.185000	 69.050468	 0.815000	 0.185000	 
572.000000	 76.626162	 0.185000	 76.626344	 0.815000	 0.185000	 69.076839	 0.185000	 69.076864	 0.815000	 0.185000	 
574.000000	 76.625948	 0.185000	 76.626134	 0.815000	 0.185000	 69.103051	 0.185000	 69.103077	 0.815000	 0.185000	 
576.000000	 76.625726	 0.185000	 76.625916	 0.815000	 0.185000	 69.129081	 0.185000	 69.129108	 0.815000	 0.185000	 
578.000000	 76.625496	 0.185000	 76.625691	 0.815000	 0.185000	 69.154931	 0.185000	 69.154958	 0.815000	 0.185000	 
580.000000	 76.625258	 0.185000	 76.625458	 0.815000	 0.185000	 69.180602	 0.185000	 69.180630	 0.815000	 0.185000	 
582.000000	 76.625011	 0.185000	 76.625217	 0.815000	 0.185000	 69.206097	 0.185000	 69.206125	 0.815000	 0.185000	 
584.000000	 76.624756	 0.185000	 76.624967	 0.815000	 0.185000	 69.231416	 0.185000	 69.231445	 0.815000	 0.185000	 
586.000000	 76.624492	 0.185000	 76.624708	 0.815000	 0.185000	 69.256563	 0.185000	 69.256592	 0.815000	 0.185000	 
588.000000	 76.624219	 0.185000	 76.624440	 0.815000	 0.185000	 69.281538	 0.185000	 69.281568	 0.815000	 0.185000	 
590.000000	 76.623935	 0.185000	 76.624162	 0.815000	 0.185000	 69.306343	 0.185000	 69.306374	 0.815000	 0.185000	 
592.000000	 76.623642	 0.185000	 76.623875	 0.815000	 0.185000	 69.330981	 0.185000	 69.331012	 0.815000	 0.185000	 
594.000000	 76.623339	 0.185000	 76.623577	 0.815000	 0.185000	 69.355452	 0.185000	 69.355484	 0.815000	 0.185000	 
596.000000	 76.623025	 0.185000	 76.623269	 0.815000	 0.185000	 69.379758	 0.185000	 69.379791	 0.815000	 0.185000	 
598.000000	 76.622700	 0.185000	 76.622950	 0.815000	 0.185000	 69.403901	 0.185000	 69.403935	 0.815000	 0.185000	 
600.000000	 76.622363	 0.185000	 76.622620	 0.815000	 0.185000	 69.427883	 0.185000	 69.427917	 0.815000	 0.185000	 
602.000000	 76.622015	 0.185000	 76.622278	 0.815000	 0.185000	 69.451704	 0.185000	 69.451739	 0.815000	 0.185000	 
604.000000	 76.621654	 0.185000	 76.621923	 0.815000	 0.185000	 69.475367	 0.185000	 69.475403	 0.815000	 0.185000	 
606.000000	 76.621280	 0.185000	 76.621557	 0.815000	 0.185000	 69.498874	 0.185000	 69.498911	 0.815000	 0.185000	 
608.000000	 76.620894	 0.185000	 76.621177	 0.815000	 0.185000	 69.522225	 0.185000	 69.522262	 0.815000	 0.185000	 
610.000000	 76.620493	 0.185000	 76.620783	 0.815000	 0.185000	 69.545422	 0.185000	 69.545460	 0.815000	 0.185000	 
612.000000	 76.620079	 0.185000	 76.620376	 0.815000	 0.185000	 69.568466	 0.185000	 69.568505	 0.815000	 0.185000	 
614.000000	 76.619650	 0.185000	 76.619954	 0.815000	 0.185000	 69.591360	 0.185000	 69.591400	 0.815000	 0.185000	 
616.000000	 76.619206	 0.185000	 76.619518	 0.815000	 0.185000	 69.614103	 0.185000	 69.614144	 0.815000	 0.185000	 
618.000000	 76.618746	 0.185000	 76.619065	 0.815000	 0.185000	 69.636699	 0.185000	 69.636741	 0.815000	 0.185000	 
620.000000	 76.618270	 0.185000	 76.618597	 0.815000	 0.185000	 69.659148	 0.185000	 69.659191	 0.815000	 0.185000	 
622.000000	 76.617777	 0.185000	 76.618112	 0.815000	 0.185000	 69.681451	 0.185000	 69.681495	 0.815000	 0.185000	 
624.000000	 76.617266	 0.185000	 76.617610	 0.815000	 0.185000	 69.703610	 0.185000	 69.703655	 0.815000	 0.185000	 
626.000000	 76.616738	 0.185000	 76.617090	 0.815000	 0.185000	 69.725627	 0.185000	 69.725672	 0.815000	 0.185000	 
628.000000	 76.616191	 0.185000	 76.616551	 0.815000	 0.185000	 69.747501	 0.185000	 69.747548	 0.815000	 0.185000	 
630.000000	 76.615625	 0.185000	 76.615994	 0.815000	 0.185000	 69.769236	 0.185000	 69.769284	 0.815000	 0.185000	 
632.000000	 76.615039	 0.185000	 76.615416	 0.815000	 0.185000	 69.790831	 0.185000	 69.790880	 0.815000	 0.185000	 
634.000000	 76.614432	 0.185000	 76.614818	 0.815000	 0.185000	 69.812289	 0.185000	 69.812339	 0.815000	 0.185000	 
636.000000	 76.613803	 0.185000	 76.614199	 0.815000	 0.185000	 69.833611	 0.185000	 69.833662	 0.815000	 0.185000	 
638.000000	 76.613153	 0.185000	 76.613558	 0.815000	 0.185000	 69.854797	 0.185000	 69.854849	 0.815000	 0.185000	 
640.000000	 76.612479	 0.185000	 76.612894	 0.815000	 0.185000	 69.875849	 0.185000	 69.875902	 0.815000	 0.185000	 
642.000000	 76.611782	 0.185000	 76.612206	 0.815000	 0.185000	 69.896768	 0.185000	 69.896822	 0.815000	 0.185000	 
644.000000	 76.611060	 0.185000	 76.611494	 0.815000	 0.185000	 69.917555	 0.185000	 69.917611	 0.815000	 0.185000	 
646.000000	 76.610312	 0.185000	 76.610757	 0.815000	 0.185000	 69.938212	 0.185000	 69.938268	 0.815000	 0.185000	 
648.000000	 76.609538	 0.185000	 76.609993	 0.815000	 0.185000	 69.958739	 0.185000	 69.958797	 0.815000	 0.185000	 
650.000000	 76.608737	 0.185000	 76.609203	 0.815000	 0.185000	 69.979138	 0.185000	 69.979197	 0.815000	 0.185000	 
652.000000	 76.607907	 0.185000	 76.608384	 0.815000	 0.185000	 69.999409	 0.185000	 69.999470	 0.815000	 0.185000	 
654.000000	 76.607048	 0.185000	 76.607536	 0.815000	 0.185000	 70.019554	 0.185000	 70.019616	 0.815000	 0.185000	 
656.000000	 76.606159	 0.185000	 76.606658	 0.815000	 0.185000	 70.039574	 0.185000	 70.039638	 0.815000	 0.185000	 
658.000000	 76.605238	 0.185000	 76.605748	 0.815000	 0.185000	 70.059470	 0.185000	 70.059535	 0.815000	 0.185000	 
660.000000	 76.604285	 0.185000	 76.604806	 0.815000	 0.185000	 70.079243	 0.185000	 70.079309	 0.815000	 0.185000	 
662.000000	 76.603298	 0.185000	 76.603831	 0.815000	 0.185000	 70.098894	 0.185000	 70.098961	 0.815000	 0.185000	 
664.000000	 76.602276	 0.185000	 76.602821	 0.815000	 0.185000	 70.118424	 0.185000	 70.118492	 0.815000	 0.185000	 
666.000000	 76.601218	 0.185000	 76.601775	 0.815000	 0.185000	 70.137833	 0.185000	 70.137903	 0.815000	 0.185000	 
668.000000	 76.600123	 0.185000	 76.600692	 0.815000	 0.185000	 70.157124	 0.185000	 70.157195	 0.815000	 0.185000	 
670.000000	 76.598989	 0.185000	 76.599570	 0.815000	 0.185000	 70.176296	 0.185000	 70.176369	 0.815000	 0.185000	 
672.000000	 76.597814	 0.185000	 76.598408	 0.815000	 0.185000	 70.195351	 0.185000	 70.195426	 0.815000	 0.185000	 
674.000000	 76.596599	 0.185000	 76.597205	 0.815000	 0.185000	 70.214289	 0.185000	 70.214366	 0.815000	 0.185000	 
676.000000	 76.595340	 0.185000	 76.595959	 0.815000	 0.185000	 70.233113	 0.185000	 70.233190	 0.815000	 0.185000	 
678.000000	 76.594036	 0.185000	 76.594669	 0.815000	 0.185000	 70.251821	 0.185000	 70.251901	 0.815000	 0.185000	 
680.000000	 76.592687	 0.185000	 76.593332	 0.815000	 0.185000	 70.270416	 0.185000	 70.270497	 0.815000	 0.185000	 
682.000000	 76.591289	 0.185000	 76.591948	 0.815000	 0.185000	 70.288898	 0.185000	 70.288981	 0.815000	 0.185000	 
684.000000	 76.589843	 0.185000	 76.590514	 0.815000	 0.185000	 70.307268	 0.185000	 70.307353	 0.815000	 0.185000	 
686.000000	 76.588345	 0.185000	 76.589030	 0.815000	 0.185000	 70.325527	 0.185000	 70.325614	 0.815000	 0.185000	 
688.000000	 76.586793	 0.185000	 76.587492	 0.815000	 0.185000	 70.343676	 0.185000	 70.343764	 0.815000	 0.185000	 
690.000000	 76.585187	 0.185000	 76.585900	 0.815000	 0.185000	 70.361715	 0.185000	 70.361805	 0.815000	 0.185000	 
692.000000	 76.583524	 0.185000	 76.584250	 0.815000	 0.185000	 70.379645	 0.185000	 70.379737	 0.815000	 0.185000	 
694.000000	 76.581803	 0.185000	 76.582542	 0.815000	 0.185000	 70.397467	 0.185000	 70.397561	 0.815000	 0.185000	 
696.000000	 76.580020	 0.185000	 76.580773	 0.815000	 0.185000	 70.415183	 0.185000	 70.415278	 0.815000	 0.185000	 
698.000000	 76.578174	 0.185000	 76.578940	 0.815000	 0.185000	 70.432791	 0.185000	 70.432888	 0.815000	 0.185000	 
700.000000	 76.576262	 0.185000	 76.577042	 0.815000	 0.185000	 70.450294	 0.185000	 70.450393	 0.815000	 0.185000	 
702.000000	 76.574283	 0.185000	 76.575077	 0.815000	 0.185000	 70.467692	 0.185000	 70.467793	 0.815000	 0.185000	 
704.000000	 76.572233	 0.185000	 76.573040	 0.815000	 0.185000	 70.484985	 0.185000	 70.485088	 0.815000	 0.185000	 
706.000000	 76.570111	 0.185000	 76.570932	 0.815000	 0.185000	 70.502174	 0.185000	 70.502280	 0.815000	 0.185000	 
708.000000	 76.567913	 0.185000	 76.568747	 0.815000	 0.185000	 70.519261	 0.185000	 70.519368	 0.815000	 0.185000	 
710.000000	 76.565638	 0.185000	 76.566485	 0.815000	 0.185000	 70.536245	 0.185000	 70.536355	 0.815000	 0.185000	 
712.000000	 76.563282	 0.185000	 76.564141	 0.815000	 0.185000	 70.553128	 0.185000	 70.553239	 0.815000	 0.185000	 
714.000000	 76.560842	 0.185000	 76.561714	 0.815000	 0.185000	 70.569909	 0.185000	 70.570023	 0.815000	 0.185000	 
716.000000	 76.558315	 0.185000	 76.559199	 0.815000	 0.185000	 70.586590	 0.185000	 70.586706	 0.815000	 0.185000	 
718.000000	 76.555699	 0.185000	 76.556595	 0.815000	 0.185000	 70.603171	 0.185000	 70.603289	 0.815000	 0.185000	 
720.000000	 76.552990	 0.185000	 76.553897	 0.815000	 0.185000	 70.619652	 0.185000	 70.619772	 0.815000	 0.185000	 
722.000000	 76.550184	 0.185000	 76.551103	 0.815000	 0.185000	 70.636035	 0.185000	 70.636157	 0.815000	 0.185000	 
724.000000	 76.547279	 0.185000	 76.548208	 0.815000	 0.185000	 70.652319	 0.185000	 70.652444	 0.815000	 0.185000	 
726.000000	 76.544271	 0.185000	 76.545209	 0.815000	 0.185000	 70.668506	 0.185000	 70.668633	 0.815000	 0.185000	 
728.000000	 76.541155	 0.185000	 76.542103	 0.815000	 0.185000	 70.684595	 0.185000	 70.684725	 0.815000	 0.185000	 
730.000000	 76.537929	 0.185000	 76.538885	 0.815000	 0.185000	 70.700588	 0.185000	 70.700719	 0.815000	 0.185000	 
732.000000	 76.534588	 0.185000	 76.535551	 0.815000	 0.185000	 70.716485	 0.185000	 70.716618	 0.815000	 0.185000	 
734.000000	 76.531128	 0.185000	 76.532098	 0.815000	 0.185000	 70.732285	 0.185000	 70.732421	 0.815000	 0.185000	 
736.000000	 76.527545	 0.185000	 76.528520	 0.815000	 0.185000	 70.747991	 0.185000	 70.748129	 0.815000	 0.185000	 
738.000000	 76.523834	 0.185000	 76.524814	 0.815000	 0.185000	 70.763601	 0.185000	 70.763741	 0.815000	 0.185000	 
740.000000	 76.519991	 0.185000	 76.520974	 0.815000	 0.185000	 70.779117	 0.185000	 70.779260	 0.815000	 0.185000	 
742.000000	 76.516012	 0.185000	 76.516997	 0.815000	 0.185000	 70.794539	 0.185000	 70.794684	 0.815000	 0.185000	 
744.000000	 76.511890	 0.185000	 76.512875	 0.815000	 0.185000	 70.809867	 0.185000	 70.810014	 0.815000	 0.185000	 
746.000000	 76.507622	 0.185000	 76.508606	 0.815000	 0.185000	 70.825101	 0.185000	 70.825251	 0.815000	 0.185000	 
748.000000	 76.503201	 0.185000	 76.504182	 0.815000	 0.185000	 70.840243	 0.185000	 70.840395	 0.815000	 0.185000	 
750.000000	 76.498623	 0.185000	 76.499599	 0.815000	 0.185000	 70.855292	 0.185000	 70.855446	 0.815000	 0.185000	 
752.000000	 76.493881	 0.185000	 76.494850	 0.815000	 0.185000	 70.870248	 0.185000	 70.870404	 0.815000	 0.185000	 
754.000000	 76.488971	 0.185000	 76.489930	 0.815000	 0.185000	 70.885113	 0.185000	 70.885271	 0.815000	 0.185000	 
756.000000	 76.483884	 0.185000	 76.484832	 0.815000	 0.185000	 70.899885	 0.185000	 70.900045	 0.815000	 0.185000	 
758.000000	 76.478617	 0.185000	 76.479549	 0.815000	 0.185000	 70.914566	 0.185000	 70.914728	 0.815000	 0.185000	 
760.000000	 76.473161	 0.185000	 76.474076	 0.815000	 0.185000	 70.929155	 0.185000	 70.929320	 0.815000	 0.185000	 
762.000000	 76.467510	 0.185000	 76.468404	 0.815000	 0.185000	 70.943654	 0.185000	 70.943820	 0.815000	 0.185000	 
764.000000	 76.461658	 0.185000	 76.462528	 0.815000	 0.185000	 70.958061	 0.185000	 70.958229	 0.815000	 0.185000	 
766.000000	 76.455596	 0.185000	 76.456438	 0.815000	 0.185000	 70.972378	 0.185000	 70.972547	 0.815000	 0.185000	 
768.000000	 76.449317	 0.185000	 76.450127	 0.815000	 0.185000	 70.986603	 0.185000	 70.986775	 0.815000	 0.185000	 
770.000000	 76.442814	 0.185000	 76.443587	 0.815000	 0.185000	 71.000739	 0.185000	 71.000912	 0.815000	 0.185000	 
772.000000	 76.436078	 0.185000	 76.436810	 0.815000	 0.185000	 71.014783	 0.185000	 71.014958	 0.815000	 0.185000	 
774.000000	 76.429102	 0.185000	 76.429787	 0.815000	 0.185000	 71.028738	 0.185000	 71.028914	 0.815000	 0.185000	 
776.000000	 76.421875	 0.185000	 76.422508	 0.815000	 0.185000	 71.042602	 0.185000	 71.042779	 0.815000	 0.185000	 
778.000000	 76.414389	 0.185000	 76.414965	 0.815000	 0.185000	 71.056376	 0.185000	 71.056554	 0.815000	 0.185000	 
780.000000	 76.406636	 0.185000	 76.407147	 0.815000	 0.185000	 71.070059	 0.185000	 71.070238	 0.815000	 0.185000	 
782.000000	 76.398604	 0.185000	 76.399045	 0.815000	 0.185000	 71.083653	 0.185000	 71.083832	 0.815000	 0.185000	 
784.000000	 76.390285	 0.185000	 76.390647	 0.815000	 0.185000	 71.097155	 0.185000	 71.097335	 0.815000	 0.185000	 
786.000000	 76.381667	 0.185000	 76.381943	 0.815000	 0.185000	 71.110568	 0.185000	 71.110748	 0.815000	 0.185000	 
788.000000	 76.372740	 0.185000	 76.372921	 0.815000	 0.185000	 71.123890	 0.185000	 71.124070	 0.815000	 0.185000	 
790.000000	 76.363493	 0.185000	 76.363570	 0.815000	 0.185000	 71.137121	 0.185000	 71.137301	 0.815000	 0.185000	 
792.000000	 76.353915	 0.185000	 76.353877	 0.815000	 0.185000	 71.150262	 0.185000	 71.150441	 0.815000	 0.185000	 
794.000000	 76.343992	 0.185000	 76.343831	 0.815000	 0.185000	 71.163311	 0.185000	 71.163490	 0.815000	 0.185000	 
796.000000	 76.333714	 0.185000	 76.333416	 0.815000	 0.185000	 71.176270	 0.185000	 71.176447	 0.815000	 0.185000	 
798.000000	 76.323066	 0.185000	 76.322620	 0.815000	 0.185000	 71.189137	 0.185000	 71.189312	 0.815000	 0.185000	 
800.000000	 76.312037	 0.185000	 76.311429	 0.815000	 0.185000	 71.201912	 0.185000	 71.202086	 0.815000	 0.185000	 
802.000000	 76.300611	 0.185000	 76.299828	 0.815000	 0.185000	 71.214595	 0.185000	 71.214767	 0.815000	 0.185000	 
804.000000	 76.288775	 0.185000	 76.287802	 0.815000	 0.185000	 71.227186	 0.185000	 71.227355	 0.815000	 0.185000	 
806.000000	 76.276513	 0.185000	 76.275334	 0.815000	 0.185000	 71.239685	 0.185000	 71.239850	 0.815000	 0.185000	 
808.000000	 76.263812	 0.185000	 76.262409	 0.815000	 0.185000	 71.252090	 0.185000	 71.252251	 0.815000	 0.185000	 
810.000000	 76.250654	 0.185000	 76.249009	 0.815000	 0.185000	 71.264402	 0.185000	 71.264559	 0.815000	 0.185000	 
812.000000	 76.237024	 0.185000	 76.235117	 0.815000	 0.185000	 71.276619	 0.185000	 71.276771	 0.815000	 0.185000	 
814.000000	 76.222904	 0.185000	 76.220714	 0.815000	 0.185000	 71.288743	 0.185000	 71.288889	 0.815000	 0.185000	 
816.000000	 76.208277	 0.185000	 76.205781	 0.815000	 0.185000	 71.300771	 0.185000	 71.300910	 0.815000	 0.185000	 
818.000000	 76.193125	 0.185000	 76.190299	 0.815000	 0.185000	 71.312703	 0.185000	 71.312836	 0.815000	 0.185000	 
820.000000	 76.177429	 0.185000	 76.174248	 0.815000	 0.185000	 71.324540	 0.185000	 71.324664	 0.815000	 0.185000	 
822.000000	 76.161170	 0.185000	 76.157606	 0.815000	 0.185000	 71.336279	 0.185000	 71.336394	 0.815000	 0.185000	 
824.000000	 76.144328	 0.185000	 76.140351	 0.815000	 0.185000	 71.347921	 0.185000	 71.348026	 0.815000	 0.185000	 
826.000000	 76.126881	 0.185000	 76.122461	 0.815000	 0.185000	 71.359464	 0.185000	 71.359559	 0.815000	 0.185000	 
828.000000	 76.108810	 0.185000	 76.103913	 0.815000	 0.185000	 71.370908	 0.185000	 71.370991	 0.815000	 0.185000	 
830.000000	 76.090091	 0.185000	 76.084681	 0.815000	 0.185000	 71.382253	 0.185000	 71.382322	 0.815000	 0.185000	 
832.000000	 76.070702	 0.185000	 76.064741	 0.815000	 0.185000	 71.393496	 0.185000	 71.393551	 0.815000	 0.185000	 
834.000000	 76.050619	 0.185000	 76.044067	 0.815000	 0.185000	 71.404637	 0.185000	 71.404676	 0.815000	 0.185000	 
836.000000	 76.029818	 0.185000	 76.022632	 0.815000	 0.185000	 71.415676	 0.185000	 71.415698	 0.815000	 0.185000	 
838.000000	 76.008274	 0.185000	 76.000409	 0.815000	 0.185000	 71.426611	 0.185000	 71.426614	 0.815000	 0.185000	 
840.000000	 75.985961	 0.185000	 75.977368	 0.815000	 0.185000	 71.437441	 0.185000	 71.437423	 0.815000	 0.185000	 
842.000000	 75.962853	 0.185000	 75.953480	 0.815000	 0.185000	 71.448164	 0.185000	 71.448125	 0.815000	 0.185000	 
844.000000	 75.938923	 0.185000	 75.928716	 0.815000	 0.185000	 71.458781	 0.185000	 71.458717	 0.815000	 0.185000	 
846.000000	 75.914142	 0.185000	 75.903044	 0.815000	 0.185000	 71.469289	 0.185000	 71.469199	 0.815000	 0.185000	 
848.000000	 75.888483	 0.185000	 75.876433	 0.815000	 0.185000	 71.479687	 0.185000	 71.479569	 0.815000	 0.185000	 
850.000000	 75.861914	 0.185000	 75.848848	 0.815000	 0.185000	 71.489974	 0.185000	 71.489826	 0.815000	 0.185000	 
852.000000	 75.834407	 0.185000	 75.820257	 0.815000	 0.185000	 71.500148	 0.185000	 71.499967	 0.815000	 0.185000	 
854.000000	 75.805928	 0.185000	 75.790625	 0.815000	 0.185000	 71.510208	 0.185000	 71.509992	 0.815000	 0.185000	 
856.000000	 75.776447	 0.185000	 75.759916	 0.815000	 0.185000	 71.520153	 0.185000	 71.519899	 0.815000	 0.185000	 
858.000000	 75.745931	 0.185000	 75.728095	 0.815000	 0.185000	 71.529980	 0.185000	 71.529685	 0.815000	 0.185000	 
860.000000	 75.714346	 0.185000	 75.695123	 0.815000	 0.185000	 71.539689	 0.185000	 71.539350	 0.815000	 0.185000	 
862.000000	 75.681659	 0.185000	 75.660964	 0.815000	 0.185000	 71.549277	 0.185000	 71.548890	 0.815000	 0.185000	 
864.000000	 75.647833	 0.185000	 75.625579	 0.815000	 0.185000	 71.558742	 0.185000	 71.558305	 0.815000	 0.185000	 
866.000000	 75.612835	 0.185000	 75.588930	 0.815000	 0.185000	 71.568083	 0.185000	 71.567593	 0.815000	 0.185000	 
868.000000	 75.576628	 0.185000	 75.550978	 0.815000	 0.185000	 71.577298	 0.185000	 71.576750	 0.815000	 0.185000	 
870.000000	 75.539174	 0.185000	 75.511682	 0.815000	 0.185000	 71.586385	 0.185000	 71.585775	 0.815000	 0.185000	 
872.000000	 75.500436	 0.185000	 75.471001	 0.815000	 0.185000	 71.595342	 0.185000	 71.594666	 0.815000	 0.185000	 
874.000000	 75.460376	 0.185000	 75.428897	 0.815000	 0.185000	 71.604166	 0.185000	 71.603419	 0.815000	 0.185000	 
876.000000	 75.418956	 0.185000	 75.385328	 0.815000	 0.185000	 71.612856	 0.185000	 71.612034	 0.815000	 0.185000	 
878.000000	 75.376137	 0.185000	 75.340255	 0.815000	 0.185000	 71.621409	 0.185000	 71.620508	 0.815000	 0.185000	 
880.000000	 75.331880	 0.185000	 75.293639	 0.815000	 0.185000	 71.629823	 0.185000	 71.628837	 0.815000	 0.185000	 
882.000000	 75.286145	 0.185000	 75.245440	 0.815000	 0.185000	 71.638095	 0.185000	 71.637019	 0.815000	 0.185000	 
884.000000	 75.238893	 0.185000	 75.195620	 0.815000	 0.185000	 71.646223	 0.185000	 71.645052	 0.815000	 0.185000	 
886.000000	 75.190085	 0.185000	 75.144143	 0.815000	 0.185000	 71.654205	 0.185000	 71.652933	 0.815000	 0.185000	 
888.000000	 75.139682	 0.185000	 75.090972	 0.815000	 0.185000	 71.662037	 0.185000	 71.660659	 0.815000	 0.185000	 
890.000000	 75.087643	 0.185000	 75.036073	 0.815000	 0.185000	 71.669718	 0.185000	 71.668227	 0.815000	 0.185000	 
892.000000	 75.033931	 0.185000	 74.979415	 0.815000	 0.185000	 71.677244	 0.185000	 71.675634	 0.815000	 0.185000	 
894.000000	 74.978505	 0.185000	 74.920966	 0.815000	 0.185000	 71.684613	 0.185000	 71.682879	 0.815000	 0.185000	 
896.000000	 74.921328	 0.185000	 74.860700	 0.815000	 0.185000	 71.691822	 0.185000	 71.689956	 0.815000	 0.185000	 
898.000000	 74.862360	 0.185000	 74.798589	 0.815000	 0.185000	 71.698867	 0.185000	 71.696864	 0.815000	 0.185000	 
900.000000	 74.801564	 0.185000	 74.734613	 0.815000	 0.185000	 71.705747	 0.185000	 71.703600	 0.815000	 0.185000	 
902.000000	 74.738903	 0.185000	 74.668751	 0.815000	 0.185000	 71.712458	 0.185000	 71.710160	 0.815000	 0.185000	 
904.000000	 74.674340	 0.185000	 74.600987	 0.815000	 0.185000	 71.718996	 0.185000	 71.716541	 0.815000	 0.185000	 
906.000000	 74.607839	 0.185000	 74.531308	 0.815000	 0.185000	 71.725359	 0.185000	 71.722741	 0.815000	 0.185000	 
908.000000	 74.539365	 0.185000	 74.459705	 0.815000	 0.185000	 71.731544	 0.185000	 71.728757	 0.815000	 0.185000	 
910.000000	 74.468888	 0.185000	 74.386176	 0.815000	 0.185000	 71.737547	 0.185000	 71.734584	 0.815000	 0.185000	 
912.000000	 74.396374	 0.185000	 74.310719	 0.815000	 0.185000	 71.743365	 0.185000	 71.740221	 0.815000	 0.185000	 
914.000000	 74.321796	 0.185000	 74.233339	 0.815000	 0.185000	 71.748994	 0.185000	 71.745665	 0.815000	 0.185000	 
916.000000	 74.245126	 0.185000	 74.154045	 0.815000	 0.185000	 71.754433	 0.185000	 71.750912	 0.815000	 0.185000	 
918.000000	 74.166337	 0.185000	 74.072849	 0.815000	 0.185000	 71.759676	 0.185000	 71.755959	 0.815000	 0.185000	 
920.000000	 74.085407	 0.185000	 73.989765	 0.815000	 0.185000	 71.764721	 0.185000	 71.760805	 0.815000	 0.185000	 
922.000000	 74.002313	 0.185000	 73.904814	 0.815000	 0.185000	 71.769564	 0.185000	 71.765446	 0.815000	 0.185000	 
924.000000	 73.917034	 0.185000	 73.818015	 0.815000	 0.185000	 71.774202	 0.185000	 71.769879	 0.815000	 0.185000	 
926.000000	 73.829550	 0.185000	 73.729389	 0.815000	 0.185000	 71.778632	 0.185000	 71.774102	 0.815000	 0.185000	 
928.000000	 73.739845	 0.185000	 73.638959	 0.815000	 0.185000	 71.782849	 0.185000	 71.778112	 0.815000	 0.185000	 
930.000000	 73.647907	 0.185000	 73.546750	 0.815000	 0.185000	 71.786852	 0.185000	 71.781908	 0.815000	 0.185000	 
932.000000	 73.553728	 0.185000	 73.452786	 0.815000	 0.185000	 71.790635	 0.185000	 71.785486	 0.815000	 0.185000	 
934.000000	 73.457305	 0.185000	 73.357095	 0.815000	 0.185000	 71.794196	 0.185000	 71.788844	 0.815000	 0.185000	 
936.000000	 73.358637	 0.185000	 73.259701	 0.815000	 0.185000	 71.797532	 0.185000	 71.791980	 0.815000	 0.185000	 
938.000000	 73.257728	 0.185000	 73.160626	 0.815000	 0.185000	 71.800639	 0.185000	 71.794892	 0.815000	 0.185000	 
940.000000	 73.154580	 0.185000	 73.059885	 0.815000	 0.185000	 71.803514	 0.185000	 71.797578	 0.815000	 0.185000	 
942.000000	 73.049193	 0.185000	 72.957486	 0.815000	 0.185000	 71.806153	 0.185000	 71.800035	 0.815000	 0.185000	 
944.000000	 72.941577	 0.185000	 72.853441	 0.815000	 0.185000	 71.808553	 0.185000	 71.802262	 0.815000	 0.185000	 
946.000000	 72.831744	 0.185000	 72.747753	 0.815000	 0.185000	 71.810712	 0.185000	 71.804257	 0.815000	 0.185000	 
948.000000	 72.719704	 0.185000	 72.640415	 0.815000	 0.185000	 71.812626	 0.185000	 71.806017	 0.815000	 0.185000	 
950.000000	 72.605475	 0.185000	 72.531418	 0.815000	 0.185000	 71.814291	 0.185000	 71.807541	 0.815000	 0.185000	 
952.000000	 72.489076	 0.185000	 72.420750	 0.815000	 0.185000	 71.815706	 0.185000	 71.808827	 0.815000	 0.185000	 
954.000000	 72.370528	 0.185000	 72.308396	 0.815000	 0.185000	 71.816867	 0.185000	 71.809872	 0.815000	 0.185000	 
956.000000	 72.249853	 0.185000	 72.194336	 0.815000	 0.185000	 71.817770	 0.185000	 71.810675	 0.815000	 0.185000	 
958.000000	 72.127073	 0.185000	 72.078548	 0.815000	 0.185000	 71.818415	 0.185000	 71.811233	 0.815000	 0.185000	 
960.000000	 72.002208	 0.185000	 71.961005	 0.815000	 0.185000	 71.818797	 0.185000	 71.811544	 0.815000	 0.185000	 
962.000000	 71.875272	 0.185000	 71.843807	 0.825000	 0.180000	 71.818914	 0.185000	 71.811607	 0.815000	 0.185000	 
964.000000	 71.753248	 0.175000	 71.730617	 0.825000	 0.175000	 71.818764	 0.185000	 71.811418	 0.815000	 0.185000	 
966.000000	 71.629264	 0.175000	 71.615671	 0.825000	 0.175000	 71.818343	 0.185000	 71.810976	 0.815000	 0.185000	 
968.000000	 71.503344	 0.175000	 71.498942	 0.825000	 0.175000	 71.817650	 0.185000	 71.810278	 0.815000	 0.185000	 
970.000000	 71.375514	 0.175000	 71.380403	 0.825000	 0.175000	 71.816682	 0.185000	 71.809322	 0.815000	 0.185000	 
972.000000	 71.245803	 0.175000	 71.260038	 0.825000	 0.175000	 71.815437	 0.185000	 71.808106	 0.815000	 0.185000	 
974.000000	 71.114242	 0.175000	 71.137832	 0.825000	 0.175000	 71.813912	 0.185000	 71.806627	 0.815000	 0.185000	 
976.000000	 70.980862	 0.175000	 71.013774	 0.825000	 0.175000	 71.812105	 0.185000	 71.804883	 0.815000	 0.185000	 
978.000000	 70.845700	 0.175000	 70.887863	 0.825000	 0.175000	 71.810014	 0.185000	 71.802872	 0.815000	 0.185000	 
980.000000	 70.708793	 0.175000	 70.760097	 0.825000	 0.175000	 71.807638	 0.185000	 71.800590	 0.815000	 0.185000	 
982.000000	 70.570180	 0.175000	 70.630481	 0.825000	 0.175000	 71.804974	 0.185000	 71.798037	 0.815000	 0.185000	 
984.000000	 70.429902	 0.175000	 70.499022	 0.825000	 0.175000	 71.802020	 0.185000	 71.795210	 0.815000	 0.185000	 
986.000000	 70.287999	 0.175000	 70.365726	 0.825000	 0.175000	 71.798774	 0.185000	 71.792106	 0.815000	 0.185000	 
988.000000	 70.144510	 0.175000	 70.230603	 0.825000	 0.175000	 71.795236	 0.185000	 71.788723	 0.815000	 0.185000	 
990.000000	 69.999477	 0.175000	 70.093662	 0.825000	 0.175000	 71.791403	 0.185000	 71.785059	 0.815000	 0.185000	 
992.000000	 69.852935	 0.175000	 69.954911	 0.825000	 0.175000	 71.787273	 0.185000	 71.781113	 0.815000	 0.185000	 
994.000000	 69.704924	 0.175000	 69.814356	 0.825000	 0.175000	 71.782846	 0.185000	 71.776881	 0.815000	 0.185000	 
996.000000	 69.555483	 0.175000	 69.672006	 0.825000	 0.175000	 71.778120	 0.185000	 71.772362	 0.815000	 0.185000	 
998.000000	 69.404654	 0.175000	 69.527871	 0.825000	 0.175000	 71.773093	 0.185000	 71.767554	 0.815000	 0.185000	 
1000.000000	 69.252469	 0.175000	 69.381964	 0.825000	 0.175000	 71.767765	 0.185000	 71.762455	 0.815000	 0.185000	 
1002.000000	 69.098965	 0.175000	 69.234300	 0.825000	 0.175000	 71.762134	 0.185000	 71.757063	 0.815000	 0.185000	 
1004.000000	 68.944173	 0.175000	 69.084889	 0.825000	 0.175000	 71.756200	 0.185000	 71.751376	 0.815000	 0.185000	 
1006.000000	 68.788121	 0.175000	 68.933747	 0.825000	 0.175000	 71.749960	 0.185000	 71.745392	 0.815000	 0.185000	 
1008.000000	 68.630841	 0.175000	 68.790462	 0.835000	 0.170000	 71.743415	 0.185000	 71.739109	 0.815000	 0.185000	 
1010.000000	 68.472360	 0.175000	 68.647239	 0.835000	 0.170000	 71.736563	 0.185000	 71.732526	 0.815000	 0.185000	 
1012.000000	 68.322440	 0.165000	 68.502421	 0.835000	 0.165000	 71.729403	 0.185000	 71.725641	 0.815000	 0.185000	 
1014.000000	 68.173178	 0.165000	 68.356034	 0.835000	 0.165000	 71.721935	 0.185000	 71.718453	 0.815000	 0.185000	 
1016.000000	 68.023003	 0.165000	 68.208120	 0.835000	 0.165000	 71.714159	 0.185000	 71.710959	 0.815000	 0.185000	 
1018.000000	 67.871959	 0.165000	 68.058730	 0.835000	 0.165000	 71.706072	 0.185000	 71.703159	 0.815000	 0.185000	 
1020.000000	 67.720101	 0.165000	 67.907926	 0.835000	 0.165000	 71.697676	 0.185000	 71.695052	 0.815000	 0.185000	 
1022.000000	 67.567494	 0.165000	 67.755784	 0.835000	 0.165000	 71.688970	 0.185000	 71.686635	 0.815000	 0.185000	 
1024.000000	 67.414222	 0.165000	 67.602389	 0.835000	 0.165000	 71.679953	 0.185000	 71.677909	 0.815000	 0.185000	 
1026.000000	 67.260370	 0.165000	 67.447849	 0.835000	 0.165000	 71.670626	 0.185000	 71.668873	 0.815000	 0.185000	 
1028.000000	 67.106022	 0.165000	 67.292282	 0.835000	 0.165000	 71.660990	 0.185000	 71.659527	 0.815000	 0.185000	 
1030.000000	 66.951270	 0.165000	 67.135819	 0.835000	 0.165000	 71.651044	 0.185000	 71.649869	 0.815000	 0.185000	 
1032.000000	 66.796217	 0.165000	 66.978617	 0.835000	 0.165000	 71.640790	 0.185000	 71.639902	 0.815000	 0.185000	 
1034.000000	 66.640983	 0.165000	 66.820838	 0.835000	 0.165000	 71.630228	 0.185000	 71.629624	 0.815000	 0.185000	 
1036.000000	 66.485696	 0.165000	 66.662657	 0.835000	 0.165000	 71.619361	 0.185000	 71.619037	 0.815000	 0.185000	 
1038.000000	 66.330488	 0.165000	 66.504261	 0.835000	 0.165000	 71.608189	 0.185000	 71.608143	 0.815000	 0.185000	 
1040.000000	 66.175500	 0.165000	 66.347101	 0.845000	 0.160000	 71.596715	 0.185000	 71.596942	 0.815000	 0.185000	 
1042.000000	 66.022533	 0.155000	 66.202364	 0.845000	 0.155000	 71.584941	 0.185000	 71.585438	 0.815000	 0.185000	 
1044.000000	 65.883021	 0.155000	 66.058010	 0.845000	 0.155000	 71.572870	 0.185000	 71.573631	 0.815000	 0.185000	 
1046.000000	 65.744207	 0.155000	 65.914237	 0.845000	 0.155000	 71.560504	 0.185000	 71.561526	 0.815000	 0.185000	 
1048.000000	 65.606245	 0.155000	 65.771249	 0.845000	 0.155000	 71.547847	 0.185000	 71.549125	 0.815000	 0.185000	 
1050.000000	 65.469286	 0.155000	 65.629271	 0.845000	 0.155000	 71.534904	 0.185000	 71.536432	 0.815000	 0.185000	 
1052.000000	 65.333509	 0.155000	 65.488531	 0.845000	 0.155000	 71.521677	 0.185000	 71.523452	 0.815000	 0.185000	 
1054.000000	 65.199139	 0.155000	 65.349237	 0.845000	 0.155000	 71.508172	 0.185000	 71.510188	 0.815000	 0.185000	 
1056.000000	 65.066402	 0.155000	 65.211633	 0.845000	 0.155000	 71.494395	 0.185000	 71.496647	 0.815000	 0.185000	 
1058.000000	 64.935534	 0.155000	 65.075985	 0.845000	 0.155000	 71.480349	 0.185000	 71.482833	 0.815000	 0.185000	 
1060.000000	 64.806815	 0.155000	 64.942571	 0.845000	 0.155000	 71.466043	 0.185000	 71.468753	 0.815000	 0.185000	 
1062.000000	 64.680582	 0.155000	 64.811679	 0.845000	 0.155000	 71.451483	 0.185000	 71.454415	 0.815000	 0.185000	 
1064.000000	 64.557181	 0.155000	 64.683608	 0.845000	 0.155000	 71.436676	 0.185000	 71.439825	 0.815000	 0.185000	 
1066.000000	 64.436983	 0.155000	 64.558673	 0.845000	 0.155000	 71.421632	 0.185000	 71.424992	 0.815000	 0.185000	 
1068.000000	 64.320418	 0.155000	 64.437198	 0.845000	 0.155000	 71.406359	 0.185000	 71.409926	 0.815000	 0.185000	 
1070.000000	 64.207922	 0.155000	 64.319538	 0.845000	 0.155000	 71.390868	 0.185000	 71.394637	 0.815000	 0.185000	 
1072.000000	 64.102362	 0.145000	 64.207576	 0.855000	 0.145000	 71.375169	 0.185000	 71.379134	 0.815000	 0.185000	 
1074.000000	 64.012412	 0.145000	 64.110731	 0.855000	 0.145000	 71.359277	 0.185000	 71.363431	 0.815000	 0.185000	 
1076.000000	 63.927601	 0.145000	 64.018443	 0.855000	 0.145000	 71.343203	 0.185000	 71.347539	 0.815000	 0.185000	 
1078.000000	 63.848420	 0.145000	 63.931111	 0.855000	 0.145000	 71.326963	 0.185000	 71.331473	 0.815000	 0.185000	 
1080.000000	 63.775414	 0.145000	 63.849126	 0.855000	 0.145000	 71.310573	 0.185000	 71.315247	 0.815000	 0.185000	 
1082.000000	 63.709037	 0.145000	 63.772930	 0.855000	 0.145000	 71.294051	 0.185000	 71.298878	 0.815000	 0.185000	 
1084.000000	 63.649628	 0.145000	 63.702973	 0.855000	 0.145000	 71.277415	 0.185000	 71.282384	 0.815000	 0.185000	 
1086.000000	 63.597324	 0.145000	 63.639727	 0.855000	 0.145000	 71.260685	 0.185000	 71.265783	 0.815000	 0.185000	 
1088.000000	 63.551776	 0.145000	 63.583676	 0.855000	 0.145000	 71.243884	 0.185000	 71.249095	 0.815000	 0.185000	 
1090.000000	 63.513233	 0.145000	 63.535243	 0.855000	 0.145000	 71.227034	 0.185000	 71.232342	 0.815000	 0.185000	 
1092.000000	 63.482497	 0.145000	 63.494751	 0.855000	 0.145000	 71.210159	 0.185000	 71.215548	 0.815000	 0.185000	 
1094.000000	 63.460389	 0.145000	 63.462357	 0.855000	 0.145000	 71.193279	 0.185000	 71.198737	 0.815000	 0.185000	 
1096.000000	 63.447708	 0.145000	 63.437820	 0.855000	 0.145000	 71.176416	 0.185000	 71.181935	 0.815000	 0.185000	 
1098.000000	 63.445258	 0.145000	 63.421115	 0.855000	 0.145000	 71.159595	 0.185000	 71.165171	 0.815000	 0.185000	 
1100.000000	 63.453769	 0.145000	 63.413443	 0.855000	 0.145000	 71.142841	 0.185000	 71.148474	 0.815000	 0.185000	 
1102.000000	 63.473190	 0.145000	 63.415567	 0.855000	 0.145000	 71.126183	 0.185000	 71.131873	 0.815000	 0.185000	 
1104.000000	 63.502947	 0.145000	 63.425476	 0.855000	 0.145000	 71.109649	 0.185000	 71.115391	 0.815000	 0.185000	 
1106.000000	 63.543609	 0.145000	 63.437496	 0.855000	 0.145000	 71.093269	 0.185000	 71.099035	 0.815000	 0.185000	 
1108.000000	 63.596379	 0.145000	 63.452740	 0.855000	 0.145000	 71.077072	 0.185000	 71.082817	 0.815000	 0.185000	 
1110.000000	 63.662187	 0.145000	 63.472278	 0.855000	 0.145000	 71.061084	 0.185000	 71.066752	 0.815000	 0.185000	 
1112.000000	 63.741311	 0.145000	 63.496542	 0.855000	 0.145000	 71.045334	 0.185000	 71.050856	 0.815000	 0.185000	 
1114.000000	 63.831721	 0.145000	 63.525120	 0.855000	 0.145000	 71.029844	 0.185000	 71.035147	 0.815000	 0.185000	 
1116.000000	 63.925563	 0.145000	 63.557837	 0.855000	 0.145000	 71.014623	 0.185000	 71.019643	 0.815000	 0.185000	 
1118.000000	 64.022676	 0.145000	 63.594848	 0.855000	 0.145000	 70.999679	 0.185000	 71.004359	 0.815000	 0.185000	 
1120.000000	 64.122703	 0.145000	 63.635699	 0.845000	 0.150000	 70.985019	 0.185000	 70.989304	 0.815000	 0.185000	 
1122.000000	 64.224541	 0.145000	 63.684322	 0.845000	 0.150000	 70.970649	 0.185000	 70.974466	 0.815000	 0.185000	 
1124.000000	 64.327431	 0.145000	 63.728246	 0.845000	 0.150000	 70.956574	 0.185000	 70.959836	 0.815000	 0.185000	 
1126.000000	 64.430555	 0.145000	 63.767897	 0.845000	 0.150000	 70.942797	 0.185000	 70.945402	 0.815000	 0.185000	 
1128.000000	 64.532274	 0.145000	 63.803250	 0.845000	 0.150000	 70.929318	 0.185000	 70.931154	 0.815000	 0.185000	 
1130.000000	 64.627417	 0.145000	 63.833677	 0.845000	 0.150000	 70.916132	 0.185000	 70.917078	 0.815000	 0.185000	 
1132.000000	 64.710993	 0.145000	 63.858412	 0.845000	 0.150000	 70.903213	 0.185000	 70.903159	 0.815000	 0.185000	 
1134.000000	 64.784017	 0.155000	 63.877125	 0.845000	 0.155000	 70.890537	 0.185000	 70.889380	 0.815000	 0.185000	 
1136.000000	 64.850392	 0.155000	 63.889339	 0.845000	 0.155000	 70.878077	 0.185000	 70.875726	 0.815000	 0.185000	 
1138.000000	 64.900501	 0.155000	 63.894260	 0.845000	 0.155000	 70.865803	 0.185000	 70.862176	 0.815000	 0.185000	 
1140.000000	 64.932434	 0.155000	 63.890768	 0.845000	 0.155000	 70.853687	 0.185000	 70.848713	 0.815000	 0.185000	 
1142.000000	 64.946089	 0.155000	 63.877082	 0.845000	 0.155000	 70.841692	 0.185000	 70.835317	 0.815000	 0.185000	 
1144.000000	 64.941714	 0.155000	 63.852867	 0.845000	 0.155000	 70.829784	 0.185000	 70.821966	 0.815000	 0.185000	 
1146.000000	 64.919974	 0.155000	 63.819398	 0.845000	 0.155000	 70.817923	 0.185000	 70.808636	 0.815000	 0.185000	 
1148.000000	 64.882006	 0.155000	 63.778905	 0.845000	 0.155000	 70.806078	 0.185000	 70.795304	 0.815000	 0.185000	 
1150.000000	 64.829363	 0.155000	 63.733741	 0.845000	 0.155000	 70.794215	 0.185000	 70.781951	 0.815000	 0.185000	 
1152.000000	 64.763345	 0.155000	 63.685903	 0.845000	 0.155000	 70.782306	 0.185000	 70.768562	 0.815000	 0.185000	 
1154.000000	 64.684213	 0.155000	 63.635803	 0.845000	 0.155000	 70.770322	 0.185000	 70.755124	 0.815000	 0.185000	 
1156.000000	 64.590254	 0.155000	 63.576328	 0.845000	 0.155000	 70.758234	 0.185000	 70.741613	 0.815000	 0.185000	 
1158.000000	 64.473057	 0.155000	 63.507187	 0.845000	 0.155000	 70.745995	 0.185000	 70.728005	 0.815000	 0.185000	 
1160.000000	 64.332295	 0.155000	 63.429334	 0.845000	 0.155000	 70.733556	 0.185000	 70.714279	 0.815000	 0.185000	 
1162.000000	 64.169138	 0.155000	 63.342745	 0.845000	 0.155000	 70.720862	 0.185000	 70.700419	 0.815000	 0.185000	 
1164.000000	 63.982718	 0.155000	 63.246234	 0.845000	 0.155000	 70.707859	 0.185000	 70.686403	 0.815000	 0.185000	 
1166.000000	 63.767420	 0.155000	 63.137530	 0.845000	 0.155000	 70.694489	 0.185000	 70.672210	 0.815000	 0.185000	 
1168.000000	 63.523646	 0.155000	 63.013084	 0.845000	 0.155000	 70.680699	 0.185000	 70.657814	 0.815000	 0.185000	 
1170.000000	 63.251385	 0.155000	 62.867534	 0.845000	 0.155000	 70.666440	 0.185000	 70.643180	 0.815000	 0.185000	 
1172.000000	 62.948813	 0.155000	 62.695867	 0.845000	 0.155000	 70.651666	 0.185000	 70.628264	 0.815000	 0.185000	 
1174.000000	 62.622925	 0.145000	 62.490425	 0.845000	 0.150000	 70.636330	 0.185000	 70.613004	 0.815000	 0.185000	 
1176.000000	 62.270124	 0.145000	 62.248938	 0.845000	 0.150000	 70.620384	 0.185000	 70.597332	 0.815000	 0.185000	 
1178.000000	 61.885350	 0.145000	 61.968799	 0.845000	 0.150000	 70.603784	 0.185000	 70.581176	 0.815000	 0.185000	 
1180.000000	 61.469108	 0.145000	 61.643070	 0.845000	 0.150000	 70.586491	 0.185000	 70.564462	 0.815000	 0.185000	 
1182.000000	 61.022812	 0.145000	 61.277006	 0.855000	 0.145000	 70.568472	 0.185000	 70.547113	 0.815000	 0.185000	 
1184.000000	 60.546917	 0.145000	 60.871494	 0.855000	 0.145000	 70.549700	 0.185000	 70.529060	 0.815000	 0.185000	 
1186.000000	 60.038224	 0.145000	 60.413626	 0.855000	 0.145000	 70.530143	 0.185000	 70.510230	 0.815000	 0.185000	 
1188.000000	 59.501903	 0.145000	 59.895573	 0.855000	 0.145000	 70.509775	 0.185000	 70.490541	 0.815000	 0.185000	 
1190.000000	 58.946003	 0.145000	 59.317658	 0.855000	 0.145000	 70.488585	 0.185000	 70.469918	 0.815000	 0.185000	 
1192.000000	 58.375666	 0.145000	 58.681559	 0.855000	 0.145000	 70.466565	 0.185000	 70.448301	 0.815000	 0.185000	 
1194.000000	 57.788682	 0.145000	 57.989978	 0.855000	 0.145000	 70.443712	 0.185000	 70.425644	 0.815000	 0.185000	 
1196.000000	 57.187553	 0.145000	 57.250605	 0.855000	 0.145000	 70.420028	 0.185000	 70.401923	 0.815000	 0.185000	 
1198.000000	 56.574006	 0.145000	 56.475940	 0.855000	 0.145000	 70.395511	 0.185000	 70.377134	 0.815000	 0.185000	 
1200.000000	 55.948040	 0.145000	 55.684130	 0.855000	 0.145000	 70.370158	 0.185000	 70.351296	 0.815000	 0.185000	 
1202.000000	 55.324044	 0.155000	 54.899153	 0.845000	 0.155000	 70.343964	 0.185000	 70.324459	 0.815000	 0.185000	 
1204.000000	 54.696172	 0.155000	 54.174431	 0.845000	 0.155000	 70.316935	 0.185000	 70.296701	 0.815000	 0.185000	 
1206.000000	 54.069360	 0.155000	 53.503661	 0.845000	 0.155000	 70.289094	 0.185000	 70.268124	 0.815000	 0.185000	 
1208.000000	 53.448915	 0.155000	 52.898687	 0.845000	 0.155000	 70.260468	 0.185000	 70.238837	 0.815000	 0.185000	 
1210.000000	 52.833516	 0.155000	 52.384675	 0.835000	 0.160000	 70.231082	 0.185000	 70.208929	 0.815000	 0.185000	 
1212.000000	 52.251404	 0.165000	 51.924906	 0.835000	 0.165000	 70.200966	 0.185000	 70.178464	 0.815000	 0.185000	 
1214.000000	 51.700303	 0.165000	 51.498853	 0.835000	 0.165000	 70.170145	 0.185000	 70.147480	 0.815000	 0.185000	 
1216.000000	 51.162106	 0.165000	 51.089273	 0.835000	 0.165000	 70.138627	 0.185000	 70.115980	 0.815000	 0.185000	 
1218.000000	 50.622925	 0.165000	 50.675886	 0.825000	 0.170000	 70.106396	 0.185000	 70.083933	 0.815000	 0.185000	 
1220.000000	 50.071447	 0.165000	 50.238385	 0.825000	 0.170000	 70.073418	 0.185000	 70.051283	 0.815000	 0.185000	 
1222.000000	 49.493311	 0.175000	 49.753294	 0.825000	 0.175000	 70.039628	 0.185000	 70.017948	 0.815000	 0.185000	 
1224.000000	 48.868064	 0.175000	 49.201810	 0.825000	 0.175000	 70.004936	 0.185000	 69.983816	 0.815000	 0.185000	 
1226.000000	 48.182781	 0.175000	 48.582070	 0.835000	 0.170000	 69.969243	 0.185000	 69.948767	 0.815000	 0.185000	 
1228.000000	 47.425729	 0.175000	 47.886338	 0.835000	 0.170000	 69.932433	 0.185000	 69.912666	 0.815000	 0.185000	 
1230.000000	 46.595652	 0.165000	 47.103168	 0.835000	 0.165000	 69.894390	 0.185000	 69.875375	 0.815000	 0.185000	 
1232.000000	 45.700989	 0.165000	 46.235232	 0.835000	 0.165000	 69.855004	 0.185000	 69.836762	 0.815000	 0.185000	 
1234.000000	 44.741773	 0.165000	 45.286916	 0.835000	 0.165000	 69.814178	 0.185000	 69.796706	 0.815000	 0.185000	 
1236.000000	 43.725280	 0.165000	 44.265272	 0.835000	 0.165000	 69.771824	 0.185000	 69.755098	 0.815000	 0.185000	 
1238.000000	 42.660985	 0.165000	 43.179840	 0.835000	 0.165000	 69.727870	 0.185000	 69.711846	 0.815000	 0.185000	 
1240.000000	 41.558472	 0.165000	 42.041744	 0.845000	 0.160000	 69.682255	 0.185000	 69.666874	 0.815000	 0.185000	 
1242.000000	 40.422570	 0.165000	 40.875458	 0.845000	 0.160000	 69.634924	 0.185000	 69.620117	 0.815000	 0.185000	 
1244.000000	 39.251405	 0.165000	 39.670356	 0.845000	 0.160000	 69.585818	 0.185000	 69.571512	 0.815000	 0.185000	 
1246.000000	 38.048219	 0.155000	 38.423873	 0.845000	 0.155000	 69.534864	 0.185000	 69.520990	 0.815000	 0.185000	 
1248.000000	 36.805489	 0.155000	 37.127263	 0.845000	 0.155000	 69.481971	 0.185000	 69.468468	 0.815000	 0.185000	 
1250.000000	 35.495376	 0.155000	 35.794210	 0.855000	 0.150000	 69.427030	 0.185000	 69.413845	 0.815000	 0.185000	 
1252.000000	 34.135745	 0.145000	 34.393578	 0.855000	 0.145000	 69.369917	 0.185000	 69.357006	 0.815000	 0.185000	 
1254.000000	 32.691554	 0.145000	 32.923415	 0.865000	 0.140000	 69.310501	 0.185000	 69.297829	 0.815000	 0.185000	 
1256.000000	 31.185758	 0.135000	 31.387412	 0.865000	 0.135000	 69.248652	 0.185000	 69.236194	 0.815000	 0.185000	 
1258.000000	 29.587886	 0.135000	 29.768032	 0.875000	 0.130000	 69.184256	 0.185000	 69.171993	 0.815000	 0.185000	 
1260.000000	 27.944580	 0.125000	 28.104154	 0.875000	 0.125000	 69.117229	 0.185000	 69.105148	 0.815000	 0.185000	 
1262.000000	 26.229350	 0.125000	 26.369990	 0.885000	 0.120000	 69.047522	 0.185000	 69.035613	 0.815000	 0.185000	 
1264.000000	 24.489714	 0.115000	 24.623048	 0.885000	 0.115000	 68.975115	 0.185000	 68.963371	 0.815000	 0.185000	 
1266.000000	 22.698348	 0.115000	 22.818799	 0.885000	 0.115000	 68.900023	 0.185000	 68.888433	 0.815000	 0.185000	 
1268.000000	 20.885236	 0.105000	 20.999673	 0.895000	 0.105000	 68.822295	 0.185000	 68.810849	 0.815000	 0.185000	 
1270.000000	 19.069512	 0.105000	 19.172225	 0.895000	 0.105000	 68.742036	 0.185000	 68.730722	 0.815000	 0.185000	 
1272.000000	 17.259779	 0.105000	 17.350537	 0.895000	 0.105000	 68.659419	 0.185000	 68.648224	 0.815000	 0.185000	 
1274.000000	 15.521104	 0.095000	 15.602316	 0.905000	 0.095000	 68.574672	 0.185000	 68.563583	 0.815000	 0.185000	 
1276.000000	 13.843226	 0.095000	 13.911458	 0.905000	 0.095000	 68.488062	 0.185000	 68.477068	 0.815000	 0.185000	 
1278.000000	 12.323574	 0.235000	 12.357665	 0.765000	 0.235000	 68.399876	 0.185000	 68.388965	 0.815000	 0.185000	 
1280.000000	 11.512114	 0.245000	 11.541583	 0.755000	 0.245000	 68.310396	 0.185000	 68.299559	 0.815000	 0.185000	 
1282.000000	 10.808871	 0.245000	 10.836130	 0.755000	 0.245000	 68.219879	 0.185000	 68.209110	 0.815000	 0.185000	 
1284.000000	 10.188573	 0.255000	 10.212625	 0.745000	 0.255000	 68.128545	 0.185000	 68.117836	 0.815000	 0.185000	 
1286.000000	 9.629713	 0.255000	 9.652308	 0.745000	 0.255000	 68.036565	 0.185000	 68.025912	 0.815000	 0.185000	 
1288.000000	 9.114705	 0.255000	 9.136086	 0.745000	 0.255000	 67.944070	 0.185000	 67.933467	 0.815000	 0.185000	 
1290.000000	 8.634210	 0.255000	 8.654619	 0.745000	 0.255000	 67.851151	 0.185000	 67.840597	 0.815000	 0.185000	 
1292.000000	 8.183082	 0.245000	 8.203254	 0.755000	 0.245000	 67.757877	 0.185000	 67.747368	 0.815000	 0.185000	 
1294.000000	 7.757137	 0.245000	 7.776634	 0.755000	 0.245000	 67.664295	 0.185000	 67.653831	 0.815000	 0.185000	 
1296.000000	 7.351974	 0.245000	 7.370895	 0.755000	 0.245000	 67.570442	 0.185000	 67.560020	 0.815000	 0.185000	 
1298.000000	 6.965565	 0.245000	 6.983932	 0.755000	 0.245000	 67.476345	 0.185000	 67.465967	 0.815000	 0.185000	 
1300.000000	 6.596653	 0.245000	 6.614429	 0.755000	 0.245000	 67.382031	 0.185000	 67.371695	 0.815000	 0.185000	 
1302.000000	 6.244507	 0.245000	 6.261619	 0.755000	 0.245000	 67.287521	 0.185000	 67.277227	 0.815000	 0.185000	 
1304.000000	 5.908724	 0.245000	 5.925087	 0.755000	 0.245000	 67.192837	 0.185000	 67.182585	 0.815000	 0.185000	 
1306.000000	 5.589062	 0.245000	 5.604604	 0.755000	 0.245000	 67.098001	 0.185000	 67.087790	 0.815000	 0.185000	 
1308.000000	 5.285306	 0.245000	 5.299983	 0.755000	 0.245000	 67.003033	 0.185000	 66.992863	 0.815000	 0.185000	 
1310.000000	 4.997170	 0.245000	 5.010972	 0.755000	 0.245000	 66.907955	 0.185000	 66.897824	 0.815000	 0.185000	 
1312.000000	 4.724247	 0.245000	 4.737197	 0.755000	 0.245000	 66.812787	 0.185000	 66.802694	 0.815000	 0.185000	 
1314.000000	 4.465989	 0.245000	 4.478139	 0.755000	 0.245000	 66.717549	 0.185000	 66.707492	 0.815000	 0.185000	 
1316.000000	 4.221735	 0.245000	 4.233155	 0.755000	 0.245000	 66.622261	 0.185000	 66.612239	 0.815000	 0.185000	 
1318.000000	 3.990748	 0.245000	 4.001516	 0.755000	 0.245000	 66.526940	 0.185000	 66.516952	 0.815000	 0.185000	 
1320.000000	 3.772261	 0.245000	 3.782456	 0.755000	 0.245000	 66.431605	 0.185000	 66.421649	 0.815000	 0.185000	 
1322.000000	 3.565516	 0.245000	 3.575212	 0.755000	 0.245000	 66.336272	 0.185000	 66.326346	 0.815000	 0.185000	 
1324.000000	 3.369791	 0.245000	 3.379056	 0.755000	 0.245000	 66.240956	 0.185000	 66.231060	 0.815000	 0.185000	 
1326.000000	 3.184420	 0.245000	 3.193313	 0.755000	 0.245000	 66.145671	 0.185000	 66.135805	 0.815000	 0.185000	 
1328.000000	 3.008797	 0.245000	 3.017366	 0.755000	 0.245000	 66.050432	 0.185000	 66.040593	 0.815000	 0.185000	 
1330.000000	 2.842377	 0.245000	 2.850661	 0.755000	 0.245000	 65.955249	 0.185000	 65.945437	 0.815000	 0.185000	 
1332.000000	 2.684666	 0.245000	 2.692698	 0.755000	 0.245000	 65.860134	 0.185000	 65.850350	 0.815000	 0.185000	 
1334.000000	 2.535218	 0.245000	 2.543025	 0.755000	 0.245000	 65.765100	 0.185000	 65.755341	 0.815000	 0.185000	 
1336.000000	 2.393745	 0.235000	 2.401493	 0.765000	 0.235000	 65.670154	 0.185000	 65.660422	 0.815000	 0.185000	 
1338.000000	 2.260012	 0.235000	 2.267567	 0.765000	 0.235000	 65.575308	 0.185000	 65.565601	 0.815000	 0.185000	 
1340.000000	 2.133363	 0.235000	 2.140745	 0.765000	 0.235000	 65.480571	 0.185000	 65.470889	 0.815000	 0.185000	 
1342.000000	 2.013474	 0.235000	 2.020700	 0.765000	 0.235000	 65.385950	 0.185000	 65.376293	 0.815000	 0.185000	 
1344.000000	 1.900035	 0.235000	 1.907122	 0.765000	 0.235000	 65.291455	 0.185000	 65.281822	 0.815000	 0.185000	 
1346.000000	 1.792748	 0.235000	 1.799714	 0.765000	 0.235000	 65.197092	 0.185000	 65.187483	 0.815000	 0.185000	 
1348.000000	 1.691326	 0.235000	 1.698189	 0.765000	 0.235000	 65.102869	 0.185000	 65.093284	 0.815000	 0.185000	 
1350.000000	 1.595493	 0.235000	 1.602272	 0.765000	 0.235000	 65.008794	 0.185000	 64.999232	 0.815000	 0.185000	 
1352.000000	 1.504979	 0.235000	 1.511691	 0.765000	 0.235000	 64.914872	 0.185000	 64.905333	 0.815000	 0.185000	 
1354.000000	 1.419523	 0.235000	 1.426185	 0.765000	 0.235000	 64.821110	 0.185000	 64.811594	 0.815000	 0.185000	 
1356.000000	 1.338871	 0.235000	 1.345500	 0.765000	 0.235000	 64.727513	 0.185000	 64.718020	 0.815000	 0.185000	 
1358.000000	 1.262779	 0.235000	 1.269390	 0.765000	 0.235000	 64.634088	 0.185000	 64.624617	 0.815000	 0.185000	 
1360.000000	 1.191011	 0.235000	 1.197617	 0.765000	 0.235000	 64.540838	 0.185000	 64.531390	 0.815000	 0.185000	 
1362.000000	 1.123340	 0.235000	 1.129953	 0.765000	 0.235000	 64.447770	 0.185000	 64.438344	 0.815000	 0.185000	 
1364.000000	 1.059547	 0.235000	 1.066178	 0.765000	 0.235000	 64.354886	 0.185000	 64.345482	 0.815000	 0.185000	 
1366.000000	 0.999425	 0.235000	 1.006082	 0.765000	 0.235000	 64.262192	 0.185000	 64.252810	 0.815000	 0.185000	 
1368.000000	 0.942774	 0.235000	 0.949464	 0.765000	 0.235000	 64.169692	 0.185000	 64.160331	 0.815000	 0.185000	 
1370.000000	 0.889404	 0.235000	 0.896133	 0.765000	 0.235000	 64.077388	 0.185000	 64.068049	 0.815000	 0.185000	 
1372.000000	 0.839135	 0.235000	 0.845906	 0.765000	 0.235000	 63.985284	 0.185000	 63.975967	 0.815000	 0.185000	 
1374.000000	 0.791795	 0.235000	 0.798610	 0.765000	 0.235000	 63.893384	 0.185000	 63.884088	 0.815000	 0.185000	 
1376.000000	 0.747220	 0.235000	 0.754081	 0.765000	 0.235000	 63.801689	 0.185000	 63.792415	 0.815000	 0.185000	 
1378.000000	 0.705256	 0.235000	 0.712161	 0.765000	 0.235000	 63.710203	 0.185000	 63.700950	 0.815000	 0.185000	 
1380.000000	 0.665812	 0.225000	 0.672704	 0.765000	 0.230000	 63.618928	 0.185000	 63.609697	 0.815000	 0.185000	 
1382.000000	 0.628772	 0.225000	 0.635568	 0.765000	 0.230000	 63.527867	 0.185000	 63.518656	 0.815000	 0.185000	 
1384.000000	 0.593909	 0.225000	 0.600710	 0.775000	 0.225000	 63.437020	 0.185000	 63.427831	 0.815000	 0.185000	 
1386.000000	 0.561100	 0.225000	 0.567927	 0.775000	 0.225000	 63.346391	 0.185000	 63.337223	 0.815000	 0.185000	 
1388.000000	 0.530226	 0.225000	 0.537074	 0.775000	 0.225000	 63.255980	 0.185000	 63.246833	 0.815000	 0.185000	 
1390.000000	 0.501176	 0.225000	 0.508041	 0.775000	 0.225000	 63.165790	 0.185000	 63.156664	 0.815000	 0.185000	 
1392.000000	 0.473843	 0.225000	 0.480719	 0.775000	 0.225000	 63.075821	 0.185000	 63.066716	 0.815000	 0.185000	 
1394.000000	 0.448127	 0.225000	 0.455008	 0.775000	 0.225000	 62.986075	 0.185000	 62.976990	 0.815000	 0.185000	 
1396.000000	 0.423933	 0.225000	 0.430813	 0.775000	 0.225000	 62.896553	 0.185000	 62.887489	 0.815000	 0.185000	 
1398.000000	 0.401172	 0.225000	 0.408043	 0.775000	 0.225000	 62.807255	 0.185000	 62.798212	 0.815000	 0.185000	 
1400.000000	 0.379756	 0.225000	 0.386612	 0.775000	 0.225000	 62.718183	 0.185000	 62.709161	 0.815000	 0.185000	 
1402.000000	 0.359607	 0.225000	 0.366439	 0.775000	 0.225000	 62.629338	 0.185000	 62.620336	 0.815000	 0.185000	 
1404.000000	 0.340647	 0.225000	 0.347449	 0.775000	 0.225000	 62.540720	 0.185000	 62.531738	 0.815000	 0.185000	 
1406.000000	 0.322804	 0.225000	 0.329568	 0.775000	 0.225000	 62.452329	 0.185000	 62.443368	 0.815000	 0.185000	 
1408.000000	 0.306010	 0.225000	 0.312728	 0.775000	 0.225000	 62.364166	 0.185000	 62.355225	 0.815000	 0.185000	 
1410.000000	 0.290201	 0.225000	 0.296865	 0.775000	 0.225000	 62.276232	 0.185000	 62.267311	 0.815000	 0.185000	 
1412.000000	 0.275317	 0.225000	 0.281918	 0.775000	 0.225000	 62.188526	 0.185000	 62.179625	 0.815000	 0.185000	 
1414.000000	 0.261365	 0.215000	 0.267830	 0.775000	 0.220000	 62.101049	 0.185000	 62.092168	 0.815000	 0.185000	 
1416.000000	 0.248221	 0.215000	 0.254548	 0.775000	 0.220000	 62.013801	 0.185000	 62.004939	 0.815000	 0.185000	 
1418.000000	 0.235834	 0.215000	 0.242021	 0.775000	 0.220000	 61.926781	 0.185000	 61.917939	 0.815000	 0.185000	 
1420.000000	 0.224155	 0.215000	 0.230202	 0.775000	 0.220000	 61.839991	 0.185000	 61.831168	 0.815000	 0.185000	 
1422.000000	 0.213142	 0.215000	 0.219046	 0.775000	 0.220000	 61.753429	 0.185000	 61.744626	 0.815000	 0.185000	 
1424.000000	 0.202751	 0.215000	 0.208530	 0.785000	 0.215000	 61.667097	 0.185000	 61.658312	 0.815000	 0.185000	 
1426.000000	 0.192945	 0.215000	 0.198620	 0.785000	 0.215000	 61.580992	 0.185000	 61.572227	 0.815000	 0.185000	 
1428.000000	 0.183685	 0.215000	 0.189252	 0.785000	 0.215000	 61.495116	 0.185000	 61.486370	 0.815000	 0.185000	 
1430.000000	 0.175073	 0.425000	 0.180393	 0.785000	 0.320000	 61.409468	 0.185000	 61.400740	 0.815000	 0.185000	 
1432.000000	 0.169988	 0.425000	 0.172011	 0.785000	 0.320000	 61.324048	 0.185000	 61.315338	 0.815000	 0.185000	 
1434.000000	 0.164963	 0.425000	 0.164076	 0.785000	 0.320000	 61.238856	 0.185000	 61.230164	 0.815000	 0.185000	 
1436.000000	 0.160001	 0.425000	 0.158558	 0.575000	 0.425000	 61.153890	 0.185000	 61.145216	 0.815000	 0.185000	 
1438.000000	 0.155103	 0.425000	 0.153769	 0.575000	 0.425000	 61.069151	 0.185000	 61.060495	 0.815000	 0.185000	 
1440.000000	 0.150274	 0.425000	 0.149049	 0.575000	 0.425000	 60.984637	 0.185000	 60.975999	 0.815000	 0.185000	 
1442.000000	 0.145514	 0.425000	 0.144401	 0.575000	 0.425000	 60.900350	 0.185000	 60.891729	 0.815000	 0.185000	 
1444.000000	 0.140954	 0.435000	 0.139951	 0.565000	 0.435000	 60.816288	 0.185000	 60.807684	 0.815000	 0.185000	 
1446.000000	 0.136584	 0.435000	 0.135681	 0.565000	 0.435000	 60.732450	 0.185000	 60.723864	 0.815000	 0.185000	 
1448.000000	 0.132275	 0.435000	 0.131473	 0.565000	 0.435000	 60.648836	 0.185000	 60.640267	 0.815000	 0.185000	 
1450.000000	 0.128032	 0.435000	 0.127331	 0.565000	 0.435000	 60.565446	 0.185000	 60.556893	 0.815000	 0.185000	 
1452.000000	 0.123857	 0.435000	 0.123255	 0.565000	 0.435000	 60.482279	 0.185000	 60.473743	 0.815000	 0.185000	 
1454.000000	 0.119751	 0.435000	 0.119249	 0.565000	 0.435000	 60.399335	 0.185000	 60.390814	 0.815000	 0.185000	 
1456.000000	 0.115718	 0.435000	 0.115313	 0.565000	 0.435000	 60.316611	 0.185000	 60.308107	 0.815000	 0.185000	 
1458.000000	 0.111759	 0.435000	 0.111451	 0.565000	 0.435000	 60.234109	 0.185000	 60.225621	 0.815000	 0.185000	 
1460.000000	 0.107876	 0.435000	 0.107663	 0.565000	 0.435000	 60.151828	 0.185000	 60.143356	 0.815000	 0.185000	 
1462.000000	 0.104070	 0.435000	 0.103950	 0.565000	 0.435000	 60.069766	 0.185000	 60.061309	 0.815000	 0.185000	 
1464.000000	 0.100343	 0.435000	 0.100315	 0.565000	 0.435000	 59.987923	 0.185000	 59.979482	 0.815000	 0.185000	 
1466.000000	 0.096696	 0.435000	 0.096757	 0.565000	 0.435000	 59.906299	 0.185000	 59.897873	 0.815000	 0.185000	 
1468.000000	 0.093130	 0.435000	 0.093279	 0.565000	 0.435000	 59.824893	 0.185000	 59.816482	 0.815000	 0.185000	 
1470.000000	 0.089692	 0.445000	 0.089879	 0.565000	 0.440000	 59.743703	 0.185000	 59.735307	 0.815000	 0.185000	 
1472.000000	 0.086461	 0.445000	 0.086683	 0.555000	 0.445000	 59.662730	 0.185000	 59.654349	 0.815000	 0.185000	 
1474.000000	 0.083302	 0.445000	 0.083596	 0.555000	 0.445000	 59.581973	 0.185000	 59.573606	 0.815000	 0.185000	 
1476.000000	 0.080218	 0.445000	 0.080581	 0.555000	 0.445000	 59.501431	 0.185000	 59.493079	 0.815000	 0.185000	 
1478.000000	 0.078476	 0.015000	 0.079379	 0.985000	 0.015000	 59.421103	 0.185000	 59.412765	 0.815000	 0.185000	 
1480.000000	 0.077394	 0.015000	 0.078251	 0.985000	 0.015000	 59.340988	 0.185000	 59.332664	 0.815000	 0.185000	 
1482.000000	 0.076327	 0.015000	 0.077139	 0.985000	 0.015000	 59.261086	 0.185000	 59.252777	 0.815000	 0.185000	 
1484.000000	 0.075275	 0.015000	 0.076247	 0.975000	 0.020000	 59.181397	 0.185000	 59.173101	 0.815000	 0.185000	 
1486.000000	 0.074237	 0.015000	 0.075448	 0.975000	 0.020000	 59.101918	 0.185000	 59.093636	 0.815000	 0.185000	 
1488.000000	 0.073216	 0.025000	 0.074656	 0.975000	 0.025000	 59.022651	 0.185000	 59.014382	 0.815000	 0.185000	 
1490.000000	 0.072477	 0.025000	 0.073868	 0.975000	 0.025000	 58.943593	 0.185000	 58.935338	 0.815000	 0.185000	 
1492.000000	 0.071741	 0.025000	 0.073086	 0.975000	 0.025000	 58.864745	 0.185000	 58.856503	 0.815000	 0.185000	 
1494.000000	 0.071010	 0.025000	 0.072308	 0.975000	 0.025000	 58.786104	 0.185000	 58.777876	 0.815000	 0.185000	 
1496.000000	 0.070281	 0.025000	 0.071536	 0.975000	 0.025000	 58.707672	 0.185000	 58.699457	 0.815000	 0.185000	 
1498.000000	 0.069557	 0.025000	 0.070769	 0.975000	 0.025000	 58.629447	 0.185000	 58.621244	 0.815000	 0.185000	 
1500.000000	 0.068836	 0.025000	 0.070006	 0.975000	 0.025000	 58.551427	 0.185000	 58.543238	 0.815000	 0.185000	 
1502.000000	 0.068119	 0.025000	 0.069249	 0.975000	 0.025000	 58.473614	 0.185000	 58.465437	 0.815000	 0.185000	 
1504.000000	 0.067406	 0.025000	 0.068496	 0.975000	 0.025000	 58.396005	 0.185000	 58.387841	 0.815000	 0.185000	 
1506.000000	 0.066696	 0.025000	 0.067748	 0.975000	 0.025000	 58.318600	 0.185000	 58.310449	 0.815000	 0.185000	 
1508.000000	 0.065990	 0.025000	 0.067005	 0.975000	 0.025000	 58.241398	 0.185000	 58.233260	 0.815000	 0.185000	 
1510.000000	 0.065287	 0.025000	 0.066267	 0.975000	 0.025000	 58.164399	 0.185000	 58.156273	 0.815000	 0.185000	 
1512.000000	 0.064588	 0.025000	 0.065533	 0.975000	 0.025000	 58.087602	 0.185000	 58.079488	 0.815000	 0.185000	 
1514.000000	 0.063893	 0.025000	 0.064804	 0.975000	 0.025000	 58.011006	 0.185000	 58.002905	 0.815000	 0.185000	 
1516.000000	 0.063202	 0.025000	 0.064080	 0.975000	 0.025000	 57.934610	 0.185000	 57.926521	 0.815000	 0.185000	 
1518.000000	 0.062515	 0.025000	 0.063361	 0.975000	 0.025000	 57.858414	 0.185000	 57.850337	 0.815000	 0.185000	 
1520.000000	 0.061831	 0.025000	 0.062647	 0.975000	 0.025000	 57.782417	 0.185000	 57.774352	 0.815000	 0.185000	 
1522.000000	 0.061151	 0.025000	 0.061938	 0.975000	 0.025000	 57.706618	 0.185000	 57.698565	 0.815000	 0.185000	 
1524.000000	 0.060475	 0.025000	 0.061234	 0.975000	 0.025000	 57.631016	 0.185000	 57.622975	 0.815000	 0.185000	 
1526.000000	 0.059804	 0.025000	 0.060535	 0.975000	 0.025000	 57.555612	 0.185000	 57.547582	 0.815000	 0.185000	 
1528.000000	 0.059136	 0.025000	 0.059840	 0.975000	 0.025000	 57.480403	 0.185000	 57.472385	 0.815000	 0.185000	 
1530.000000	 0.058472	 0.025000	 0.059151	 0.975000	 0.025000	 57.405389	 0.185000	 57.397383	 0.815000	 0.185000	 
1532.000000	 0.057813	 0.025000	 0.058467	 0.975000	 0.025000	 57.330570	 0.185000	 57.322576	 0.815000	 0.185000	 
1534.000000	 0.057158	 0.025000	 0.057788	 0.975000	 0.025000	 57.255945	 0.185000	 57.247962	 0.815000	 0.185000	 
1536.000000	 0.056507	 0.025000	 0.057113	 0.975000	 0.025000	 57.181513	 0.185000	 57.173542	 0.815000	 0.185000	 
1538.000000	 0.055860	 0.025000	 0.056445	 0.975000	 0.025000	 57.107273	 0.185000	 57.099313	 0.815000	 0.185000	 
1540.000000	 0.055218	 0.025000	 0.055781	 0.975000	 0.025000	 57.033226	 0.185000	 57.025277	 0.815000	 0.185000	 
1542.000000	 0.054580	 0.025000	 0.055122	 0.975000	 0.025000	 56.959369	 0.185000	 56.951431	 0.815000	 0.185000	 
1544.000000	 0.053946	 0.025000	 0.054469	 0.975000	 0.025000	 56.885702	 0.185000	 56.877776	 0.815000	 0.185000	 
1546.000000	 0.053318	 0.025000	 0.053821	 0.975000	 0.025000	 56.812225	 0.185000	 56.804310	 0.815000	 0.185000	 
1548.000000	 0.052693	 0.025000	 0.053178	 0.975000	 0.025000	 56.738937	 0.185000	 56.731033	 0.815000	 0.185000	 
1550.000000	 0.052073	 0.025000	 0.052540	 0.975000	 0.025000	 56.665837	 0.185000	 56.657944	 0.815000	 0.185000	 
1552.000000	 0.051458	 0.025000	 0.051908	 0.975000	 0.025000	 56.592924	 0.185000	 56.585043	 0.815000	 0.185000	 
1554.000000	 0.050848	 0.025000	 0.051281	 0.975000	 0.025000	 56.520199	 0.185000	 56.512328	 0.815000	 0.185000	 
1556.000000	 0.050242	 0.025000	 0.050659	 0.975000	 0.025000	 56.447659	 0.185000	 56.439800	 0.815000	 0.185000	 
1558.000000	 0.049641	 0.025000	 0.050043	 0.975000	 0.025000	 56.375305	 0.185000	 56.367456	 0.815000	 0.185000	 
1560.000000	 0.049045	 0.025000	 0.049432	 0.975000	 0.025000	 56.303135	 0.185000	 56.295298	 0.815000	 0.185000	 
1562.000000	 0.048454	 0.025000	 0.048827	 0.975000	 0.025000	 56.231150	 0.185000	 56.223323	 0.815000	 0.185000	 
1564.000000	 0.047867	 0.025000	 0.048227	 0.975000	 0.025000	 56.159348	 0.185000	 56.151532	 0.815000	 0.185000	 
1566.000000	 0.047286	 0.025000	 0.047632	 0.975000	 0.025000	 56.087728	 0.185000	 56.079923	 0.815000	 0.185000	 
1568.000000	 0.046709	 0.025000	 0.047043	 0.975000	 0.025000	 56.016291	 0.185000	 56.008497	 0.815000	 0.185000	 
1570.000000	 0.046137	 0.025000	 0.046459	 0.975000	 0.025000	 55.945035	 0.185000	 55.937251	 0.815000	 0.185000	 
1572.000000	 0.045570	 0.025000	 0.045881	 0.975000	 0.025000	 55.873959	 0.185000	 55.866186	 0.815000	 0.185000	 
1574.000000	 0.045009	 0.025000	 0.045308	 0.975000	 0.025000	 55.803064	 0.185000	 55.795301	 0.815000	 0.185000	 
1576.000000	 0.044452	 0.025000	 0.044740	 0.975000	 0.025000	 55.732347	 0.185000	 55.724596	 0.815000	 0.185000	 
1578.000000	 0.043900	 0.025000	 0.044178	 0.975000	 0.025000	 55.661810	 0.185000	 55.654069	 0.815000	 0.185000	 
1580.000000	 0.043353	 0.025000	 0.043622	 0.975000	 0.025000	 55.591450	 0.185000	 55.583720	 0.815000	 0.185000	 
1582.000000	 0.042811	 0.025000	 0.043071	 0.975000	 0.025000	 55.521268	 0.185000	 55.513548	 0.815000	 0.185000	 
1584.000000	 0.042275	 0.025000	 0.042525	 0.975000	 0.025000	 55.451262	 0.185000	 55.443553	 0.815000	 0.185000	 
1586.000000	 0.041743	 0.025000	 0.041985	 0.975000	 0.025000	 55.381433	 0.185000	 55.373734	 0.815000	 0.185000	 
1588.000000	 0.041216	 0.025000	 0.041450	 0.975000	 0.025000	 55.311779	 0.185000	 55.304090	 0.815000	 0.185000	 
1590.000000	 0.040695	 0.025000	 0.040921	 0.975000	 0.025000	 55.242299	 0.185000	 55.234621	 0.815000	 0.185000	 
1592.000000	 0.040178	 0.025000	 0.040396	 0.975000	 0.025000	 55.172994	 0.185000	 55.165326	 0.815000	 0.185000	 
1594.000000	 0.039667	 0.025000	 0.039878	 0.975000	 0.025000	 55.103862	 0.185000	 55.096204	 0.815000	 0.185000	 
1596.000000	 0.039161	 0.025000	 0.039365	 0.975000	 0.025000	 55.034902	 0.185000	 55.027255	 0.815000	 0.185000	 
1598.000000	 0.038660	 0.025000	 0.038857	 0.975000	 0.025000	 54.966115	 0.185000	 54.958478	 0.815000	 0.185000	 
1600.000000	 0.038163	 0.025000	 0.038354	 0.975000	 0.025000	 54.897500	 0.185000	 54.889873	 0.815000	 0.185000	 
1602.000000	 0.037672	 0.025000	 0.037857	 0.975000	 0.025000	 54.829055	 0.185000	 54.821438	 0.815000	 0.185000	 
1604.000000	 0.037186	 0.025000	 0.037365	 0.975000	 0.025000	 54.760781	 0.185000	 54.753174	 0.815000	 0.185000	 
1606.000000	 0.036705	 0.025000	 0.036879	 0.975000	 0.025000	 54.692676	 0.185000	 54.685079	 0.815000	 0.185000	 
1608.000000	 0.036229	 0.025000	 0.036397	 0.975000	 0.025000	 54.624740	 0.185000	 54.617154	 0.815000	 0.185000	 
1610.000000	 0.035758	 0.025000	 0.035921	 0.975000	 0.025000	 54.556973	 0.185000	 54.549396	 0.815000	 0.185000	 
1612.000000	 0.035293	 0.025000	 0.035450	 0.975000	 0.025000	 54.489374	 0.185000	 54.481807	 0.815000	 0.185000	 
1614.000000	 0.034832	 0.025000	 0.034985	 0.975000	 0.025000	 54.421941	 0.185000	 54.414384	 0.815000	 0.185000	 
1616.000000	 0.034376	 0.025000	 0.034524	 0.975000	 0.025000	 54.354675	 0.185000	 54.347129	 0.815000	 0.185000	 
1618.000000	 0.033925	 0.025000	 0.034069	 0.975000	 0.025000	 54.287575	 0.185000	 54.280039	 0.815000	 0.185000	 
1620.000000	 0.033479	 0.025000	 0.033619	 0.975000	 0.025000	 54.220641	 0.185000	 54.213114	 0.815000	 0.185000	 
1622.000000	 0.033038	 0.025000	 0.033174	 0.975000	 0.025000	 54.153871	 0.185000	 54.146354	 0.815000	 0.185000	 
1624.000000	 0.032602	 0.025000	 0.032734	 0.975000	 0.025000	 54.087265	 0.185000	 54.079758	 0.815000	 0.185000	 
1626.000000	 0.032170	 0.025000	 0.032299	 0.975000	 0.025000	 54.020823	 0.185000	 54.013326	 0.815000	 0.185000	 
1628.000000	 0.031744	 0.025000	 0.031869	 0.975000	 0.025000	 53.954544	 0.185000	 53.947056	 0.815000	 0.185000	 
1630.000000	 0.031322	 0.025000	 0.031444	 0.975000	 0.025000	 53.888427	 0.185000	 53.880949	 0.815000	 0.185000	 
1632.000000	 0.030905	 0.025000	 0.031024	 0.975000	 0.025000	 53.822472	 0.185000	 53.815004	 0.815000	 0.185000	 
1634.000000	 0.030493	 0.025000	 0.030609	 0.975000	 0.025000	 53.756678	 0.185000	 53.749219	 0.815000	 0.185000	 
1636.000000	 0.030086	 0.025000	 0.030199	 0.975000	 0.025000	 53.691045	 0.185000	 53.683595	 0.815000	 0.185000	 
1638.000000	 0.029684	 0.025000	 0.029793	 0.975000	 0.025000	 53.625572	 0.185000	 53.618132	 0.815000	 0.185000	 
1640.000000	 0.029286	 0.025000	 0.029393	 0.975000	 0.025000	 53.560258	 0.185000	 53.552827	 0.815000	 0.185000	 
1642.000000	 0.028893	 0.025000	 0.028997	 0.975000	 0.025000	 53.495102	 0.185000	 53.487682	 0.815000	 0.185000	 
1644.000000	 0.028504	 0.025000	 0.028606	 0.975000	 0.025000	 53.430106	 0.185000	 53.422694	 0.815000	 0.185000	 
1646.000000	 0.028120	 0.025000	 0.028220	 0.975000	 0.025000	 53.365267	 0.185000	 53.357865	 0.815000	 0.185000	 
1648.000000	 0.027741	 0.025000	 0.027838	 0.975000	 0.025000	 53.300585	 0.185000	 53.293192	 0.815000	 0.185000	 
1650.000000	 0.027366	 0.025000	 0.027461	 0.975000	 0.025000	 53.236059	 0.185000	 53.228676	 0.815000	 0.185000	 
1652.000000	 0.026996	 0.025000	 0.027089	 0.975000	 0.025000	 53.171690	 0.185000	 53.164316	 0.815000	 0.185000	 
1654.000000	 0.026630	 0.025000	 0.026721	 0.975000	 0.025000	 53.107476	 0.185000	 53.100111	 0.815000	 0.185000	 
1656.000000	 0.026269	 0.025000	 0.026358	 0.975000	 0.025000	 53.043416	 0.185000	 53.036061	 0.815000	 0.185000	 
1658.000000	 0.025912	 0.025000	 0.025999	 0.975000	 0.025000	 52.979512	 0.185000	 52.972166	 0.815000	 0.185000	 
1660.000000	 0.025560	 0.025000	 0.025644	 0.975000	 0.025000	 52.915760	 0.185000	 52.908424	 0.815000	 0.185000	 
1662.000000	 0.025212	 0.025000	 0.025294	 0.975000	 0.025000	 52.852163	 0.185000	 52.844835	 0.815000	 0.185000	 
1664.000000	 0.024868	 0.025000	 0.024949	 0.975000	 0.025000	 52.788717	 0.185000	 52.781399	 0.815000	 0.185000	 
1666.000000	 0.024528	 0.025000	 0.024607	 0.975000	 0.025000	 52.725424	 0.185000	 52.718115	 0.815000	 0.185000	 
1668.000000	 0.024193	 0.025000	 0.024270	 0.975000	 0.025000	 52.662283	 0.185000	 52.654982	 0.815000	 0.185000	 
1670.000000	 0.023861	 0.025000	 0.023938	 0.975000	 0.025000	 52.599292	 0.185000	 52.592001	 0.815000	 0.185000	 
1672.000000	 0.023534	 0.025000	 0.023609	 0.975000	 0.025000	 52.536452	 0.185000	 52.529170	 0.815000	 0.185000	 
1674.000000	 0.023211	 0.025000	 0.023285	 0.975000	 0.025000	 52.473762	 0.185000	 52.466489	 0.815000	 0.185000	 
1676.000000	 0.022893	 0.025000	 0.022964	 0.975000	 0.025000	 52.411221	 0.185000	 52.403957	 0.815000	 0.185000	 
1678.000000	 0.022578	 0.025000	 0.022648	 0.975000	 0.025000	 52.348829	 0.185000	 52.341574	 0.815000	 0.185000	 
1680.000000	 0.022267	 0.025000	 0.022336	 0.975000	 0.025000	 52.286586	 0.185000	 52.279339	 0.815000	 0.185000	 
1682.000000	 0.021960	 0.025000	 0.022028	 0.975000	 0.025000	 52.224490	 0.185000	 52.217252	 0.815000	 0.185000	 
1684.000000	 0.021657	 0.025000	 0.021723	 0.975000	 0.025000	 52.162542	 0.185000	 52.155313	 0.815000	 0.185000	 
1686.000000	 0.021358	 0.025000	 0.021423	 0.975000	 0.025000	 52.100740	 0.185000	 52.093520	 0.815000	 0.185000	 
1688.000000	 0.021063	 0.025000	 0.021127	 0.975000	 0.025000	 52.039085	 0.185000	 52.031873	 0.815000	 0.185000	 
1690.000000	 0.020772	 0.025000	 0.020834	 0.975000	 0.025000	 51.977575	 0.185000	 51.970373	 0.815000	 0.185000	 
1692.000000	 0.020484	 0.025000	 0.020545	 0.975000	 0.025000	 51.916211	 0.185000	 51.909017	 0.815000	 0.185000	 
1694.000000	 0.020200	 0.025000	 0.020260	 0.975000	 0.025000	 51.854991	 0.185000	 51.847806	 0.815000	 0.185000	 
1696.000000	 0.019920	 0.025000	 0.019979	 0.975000	 0.025000	 51.793915	 0.185000	 51.786739	 0.815000	 0.185000	 
1698.000000	 0.019643	 0.025000	 0.019701	 0.975000	 0.025000	 51.732983	 0.185000	 51.725816	 0.815000	 0.185000	 
1700.000000	 0.019370	 0.025000	 0.019427	 0.975000	 0.025000	 51.672195	 0.185000	 51.665036	 0.815000	 0.185000	 
1702.000000	 0.019101	 0.025000	 0.019156	 0.975000	 0.025000	 51.611549	 0.185000	 51.604398	 0.815000	 0.185000	 
1704.000000	 0.018835	 0.025000	 0.018889	 0.975000	 0.025000	 51.551045	 0.185000	 51.543903	 0.815000	 0.185000	 
1706.000000	 0.018572	 0.025000	 0.018626	 0.975000	 0.025000	 51.490683	 0.185000	 51.483549	 0.815000	 0.185000	 
1708.000000	 0.018314	 0.025000	 0.018366	 0.975000	 0.025000	 51.430462	 0.185000	 51.423337	 0.815000	 0.185000	 
1710.000000	 0.018058	 0.025000	 0.018109	 0.975000	 0.025000	 51.370381	 0.185000	 51.363265	 0.815000	 0.185000	 
1712.000000	 0.017806	 0.025000	 0.017856	 0.975000	 0.025000	 51.310441	 0.185000	 51.303333	 0.815000	 0.185000	 
1714.000000	 0.017557	 0.025000	 0.017606	 0.975000	 0.025000	 51.250641	 0.185000	 51.243541	 0.815000	 0.185000	 
1716.000000	 0.017312	 0.025000	 0.017360	 0.975000	 0.025000	 51.190979	 0.185000	 51.183888	 0.815000	 0.185000	 
1718.000000	 0.017069	 0.025000	 0.017117	 0.975000	 0.025000	 51.131457	 0.185000	 51.124374	 0.815000	 0.185000	 
1720.000000	 0.016830	 0.025000	 0.016877	 0.975000	 0.025000	 51.072072	 0.185000	 51.064998	 0.815000	 0.185000	 
1722.000000	 0.016594	 0.025000	 0.016640	 0.975000	 0.025000	 51.012826	 0.185000	 51.005760	 0.815000	 0.185000	 
1724.000000	 0.016362	 0.025000	 0.016406	 0.975000	 0.025000	 50.953717	 0.185000	 50.946659	 0.815000	 0.185000	 
1726.000000	 0.016132	 0.025000	 0.016176	 0.975000	 0.025000	 50.894744	 0.185000	 50.887695	 0.815000	 0.185000	 
1728.000000	 0.015905	 0.025000	 0.015948	 0.975000	 0.025000	 50.835908	 0.185000	 50.828867	 0.815000	 0.185000	 
1730.000000	 0.015682	 0.025000	 0.015724	 0.975000	 0.025000	 50.777208	 0.185000	 50.770175	 0.815000	 0.185000	 
1732.000000	 0.015461	 0.025000	 0.015503	 0.975000	 0.025000	 50.718643	 0.185000	 50.711618	 0.815000	 0.185000	 
1734.000000	 0.015244	 0.025000	 0.015284	 0.975000	 0.025000	 50.660213	 0.185000	 50.653196	 0.815000	 0.185000	 
1736.000000	 0.015029	 0.025000	 0.015069	 0.975000	 0.025000	 50.601917	 0.185000	 50.594909	 0.815000	 0.185000	 
1738.000000	 0.014817	 0.025000	 0.014856	 0.975000	 0.025000	 50.543756	 0.185000	 50.536756	 0.815000	 0.185000	 
1740.000000	 0.014609	 0.025000	 0.014646	 0.975000	 0.025000	 50.485727	 0.185000	 50.478736	 0.815000	 0.185000	 
1742.000000	 0.014402	 0.025000	 0.014439	 0.975000	 0.025000	 50.427832	 0.185000	 50.420849	 0.815000	 0.185000	 
1744.000000	 0.014199	 0.025000	 0.014235	 0.975000	 0.025000	 50.370070	 0.185000	 50.363095	 0.815000	 0.185000	 
1746.000000	 0.013999	 0.025000	 0.014034	 0.975000	 0.025000	 50.312440	 0.185000	 50.305472	 0.815000	 0.185000	 
1748.000000	 0.013801	 0.025000	 0.013846	 0.965000	 0.030000	 50.254941	 0.185000	 50.247982	 0.815000	 0.185000	 
1750.000000	 0.013606	 0.025000	 0.013673	 0.965000	 0.030000	 50.197574	 0.185000	 50.190623	 0.815000	 0.185000	 
1752.000000	 0.013414	 0.035000	 0.013501	 0.965000	 0.035000	 50.140338	 0.185000	 50.133394	 0.815000	 0.185000	 
1754.000000	 0.013247	 0.035000	 0.013332	 0.965000	 0.035000	 50.083232	 0.185000	 50.076296	 0.815000	 0.185000	 
1756.000000	 0.013081	 0.035000	 0.013165	 0.965000	 0.035000	 50.026255	 0.185000	 50.019328	 0.815000	 0.185000	 
1758.000000	 0.012917	 0.035000	 0.012999	 0.965000	 0.035000	 49.969409	 0.185000	 49.962489	 0.815000	 0.185000	 
1760.000000	 0.012755	 0.035000	 0.012836	 0.965000	 0.035000	 49.912691	 0.185000	 49.905779	 0.815000	 0.185000	 
1762.000000	 0.012595	 0.035000	 0.012674	 0.965000	 0.035000	 49.856102	 0.185000	 49.849198	 0.815000	 0.185000	 
1764.000000	 0.012436	 0.035000	 0.012514	 0.965000	 0.035000	 49.799641	 0.185000	 49.792745	 0.815000	 0.185000	 
1766.000000	 0.012280	 0.035000	 0.012356	 0.965000	 0.035000	 49.743307	 0.185000	 49.736420	 0.815000	 0.185000	 
1768.000000	 0.012125	 0.035000	 0.012200	 0.965000	 0.035000	 49.687102	 0.185000	 49.680222	 0.815000	 0.185000	 
1770.000000	 0.011972	 0.035000	 0.012045	 0.965000	 0.035000	 49.631022	 0.185000	 49.624150	 0.815000	 0.185000	 
1772.000000	 0.011821	 0.035000	 0.011892	 0.965000	 0.035000	 49.575070	 0.185000	 49.568206	 0.815000	 0.185000	 
1774.000000	 0.011671	 0.035000	 0.011741	 0.965000	 0.035000	 49.519243	 0.185000	 49.512387	 0.815000	 0.185000	 
1776.000000	 0.011523	 0.035000	 0.011592	 0.965000	 0.035000	 49.463542	 0.185000	 49.456693	 0.815000	 0.185000	 
1778.000000	 0.011377	 0.035000	 0.011445	 0.965000	 0.035000	 49.407966	 0.185000	 49.401125	 0.815000	 0.185000	 
1780.000000	 0.011232	 0.035000	 0.011299	 0.965000	 0.035000	 49.352515	 0.185000	 49.345682	 0.815000	 0.185000	 
1782.000000	 0.011090	 0.035000	 0.011155	 0.965000	 0.035000	 49.297188	 0.185000	 49.290362	 0.815000	 0.185000	 
1784.000000	 0.010949	 0.035000	 0.011012	 0.965000	 0.035000	 49.241985	 0.185000	 49.235167	 0.815000	 0.185000	 
1786.000000	 0.010809	 0.035000	 0.010871	 0.965000	 0.035000	 49.186905	 0.185000	 49.180095	 0.815000	 0.185000	 
1788.000000	 0.010671	 0.035000	 0.010732	 0.965000	 0.035000	 49.131948	 0.185000	 49.125146	 0.815000	 0.185000	 
1790.000000	 0.010535	 0.035000	 0.010595	 0.965000	 0.035000	 49.077115	 0.185000	 49.070320	 0.815000	 0.185000	 
1792.000000	 0.010400	 0.035000	 0.010459	 0.965000	 0.035000	 49.022403	 0.185000	 49.015616	 0.815000	 0.185000	 
1794.000000	 0.010267	 0.035000	 0.010324	 0.965000	 0.035000	 48.967813	 0.185000	 48.961034	 0.815000	 0.185000	 
1796.000000	 0.010135	 0.035000	 0.010192	 0.965000	 0.035000	 48.913345	 0.185000	 48.906573	 0.815000	 0.185000	 
1798.000000	 0.010005	 0.035000	 0.010060	 0.965000	 0.035000	 48.858997	 0.185000	 48.852233	 0.815000	 0.185000	 
1800.000000	 0.009877	 0.035000	 0.009931	 0.965000	 0.035000	 48.804771	 0.185000	 48.798014	 0.815000	 0.185000	 
1802.000000	 0.009750	 0.035000	 0.009803	 0.965000	 0.035000	 48.750664	 0.185000	 48.743915	 0.815000	 0.185000	 
1804.000000	 0.009624	 0.035000	 0.009676	 0.965000	 0.035000	 48.696678	 0.185000	 48.689936	 0.815000	 0.185000	 
1806.000000	 0.009500	 0.035000	 0.009551	 0.965000	 0.035000	 48.642810	 0.185000	 48.636076	 0.815000	 0.185000	 
1808.000000	 0.009378	 0.035000	 0.009427	 0.965000	 0.035000	 48.589062	 0.185000	 48.582335	 0.815000	 0.185000	 
1810.000000	 0.009256	 0.035000	 0.009305	 0.965000	 0.035000	 48.535432	 0.185000	 48.528713	 0.815000	 0.185000	 
1812.000000	 0.009137	 0.035000	 0.009184	 0.965000	 0.035000	 48.481921	 0.185000	 48.475209	 0.815000	 0.185000	 
1814.000000	 0.009018	 0.035000	 0.009065	 0.965000	 0.035000	 48.428528	 0.185000	 48.421823	 0.815000	 0.185000	 
1816.000000	 0.008902	 0.035000	 0.008947	 0.965000	 0.035000	 48.375251	 0.185000	 48.368555	 0.815000	 0.185000	 
1818.000000	 0.008786	 0.035000	 0.008831	 0.965000	 0.035000	 48.322093	 0.185000	 48.315403	 0.815000	 0.185000	 
1820.000000	 0.008672	 0.035000	 0.008716	 0.965000	 0.035000	 48.269050	 0.185000	 48.262368	 0.815000	 0.185000	 
1822.000000	 0.008559	 0.035000	 0.008602	 0.965000	 0.035000	 48.216124	 0.185000	 48.209450	 0.815000	 0.185000	 
1824.000000	 0.008448	 0.035000	 0.008490	 0.965000	 0.035000	 48.163314	 0.185000	 48.156647	 0.815000	 0.185000	 
1826.000000	 0.008338	 0.035000	 0.008379	 0.965000	 0.035000	 48.110620	 0.185000	 48.103960	 0.815000	 0.185000	 
1828.000000	 0.008229	 0.035000	 0.008269	 0.965000	 0.035000	 48.058040	 0.185000	 48.051388	 0.815000	 0.185000	 
1830.000000	 0.008122	 0.035000	 0.008161	 0.965000	 0.035000	 48.005576	 0.185000	 47.998930	 0.815000	 0.185000	 
1832.000000	 0.008015	 0.035000	 0.008054	 0.965000	 0.035000	 47.953226	 0.185000	 47.946587	 0.815000	 0.185000	 
1834.000000	 0.007911	 0.035000	 0.007948	 0.965000	 0.035000	 47.900989	 0.185000	 47.894359	 0.815000	 0.185000	 
1836.000000	 0.007807	 0.035000	 0.007843	 0.965000	 0.035000	 47.848867	 0.185000	 47.842243	 0.815000	 0.185000	 
1838.000000	 0.007705	 0.035000	 0.007740	 0.965000	 0.035000	 47.796858	 0.185000	 47.790241	 0.815000	 0.185000	 
1840.000000	 0.007604	 0.035000	 0.007638	 0.965000	 0.035000	 47.744962	 0.185000	 47.738352	 0.815000	 0.185000	 
1842.000000	 0.007504	 0.035000	 0.007538	 0.965000	 0.035000	 47.693178	 0.185000	 47.686576	 0.815000	 0.185000	 
1844.000000	 0.007405	 0.035000	 0.007438	 0.965000	 0.035000	 47.641506	 0.185000	 47.634912	 0.815000	 0.185000	 
1846.000000	 0.007307	 0.035000	 0.007340	 0.965000	 0.035000	 47.589947	 0.185000	 47.583359	 0.815000	 0.185000	 
1848.000000	 0.007211	 0.035000	 0.007243	 0.965000	 0.035000	 47.538499	 0.185000	 47.531918	 0.815000	 0.185000	 
1850.000000	 0.007116	 0.035000	 0.007147	 0.965000	 0.035000	 47.487162	 0.185000	 47.480588	 0.815000	 0.185000	 
1852.000000	 0.007022	 0.035000	 0.007052	 0.965000	 0.035000	 47.435935	 0.185000	 47.429369	 0.815000	 0.185000	 
1854.000000	 0.006929	 0.035000	 0.006959	 0.965000	 0.035000	 47.384819	 0.185000	 47.378260	 0.815000	 0.185000	 
1856.000000	 0.006838	 0.035000	 0.006866	 0.965000	 0.035000	 47.333814	 0.185000	 47.327262	 0.815000	 0.185000	 
1858.000000	 0.006747	 0.035000	 0.006775	 0.965000	 0.035000	 47.282917	 0.185000	 47.276372	 0.815000	 0.185000	 
1860.000000	 0.006657	 0.035000	 0.006685	 0.965000	 0.035000	 47.232130	 0.185000	 47.225593	 0.815000	 0.185000	 
1862.000000	 0.006569	 0.035000	 0.006596	 0.965000	 0.035000	 47.181453	 0.185000	 47.174922	 0.815000	 0.185000	 
1864.000000	 0.006482	 0.035000	 0.006508	 0.965000	 0.035000	 47.130883	 0.185000	 47.124359	 0.815000	 0.185000	 
1866.000000	 0.006396	 0.035000	 0.006421	 0.965000	 0.035000	 47.080422	 0.185000	 47.073905	 0.815000	 0.185000	 
1868.000000	 0.006310	 0.035000	 0.006335	 0.965000	 0.035000	 47.030069	 0.185000	 47.023559	 0.815000	 0.185000	 
1870.000000	 0.006226	 0.035000	 0.006251	 0.965000	 0.035000	 46.979824	 0.185000	 46.973321	 0.815000	 0.185000	 
1872.000000	 0.006143	 0.035000	 0.006167	 0.965000	 0.035000	 46.929686	 0.185000	 46.923190	 0.815000	 0.185000	 
1874.000000	 0.006061	 0.035000	 0.006084	 0.965000	 0.035000	 46.879654	 0.185000	 46.873165	 0.815000	 0.185000	 
1876.000000	 0.005980	 0.035000	 0.006003	 0.965000	 0.035000	 46.829729	 0.185000	 46.823247	 0.815000	 0.185000	 
1878.000000	 0.005900	 0.035000	 0.005922	 0.965000	 0.035000	 46.779911	 0.185000	 46.773436	 0.815000	 0.185000	 
1880.000000	 0.005821	 0.035000	 0.005842	 0.965000	 0.035000	 46.730198	 0.185000	 46.723730	 0.815000	 0.185000	 
1882.000000	 0.005743	 0.035000	 0.005764	 0.965000	 0.035000	 46.680591	 0.185000	 46.674130	 0.815000	 0.185000	 
1884.000000	 0.005666	 0.035000	 0.005686	 0.965000	 0.035000	 46.631089	 0.185000	 46.624635	 0.815000	 0.185000	 
1886.000000	 0.005590	 0.035000	 0.005610	 0.965000	 0.035000	 46.581692	 0.185000	 46.575244	 0.815000	 0.185000	 
1888.000000	 0.005515	 0.035000	 0.005534	 0.965000	 0.035000	 46.532399	 0.185000	 46.525959	 0.815000	 0.185000	 
1890.000000	 0.005440	 0.035000	 0.005459	 0.965000	 0.035000	 46.483211	 0.185000	 46.476777	 0.815000	 0.185000	 
1892.000000	 0.005367	 0.035000	 0.005385	 0.965000	 0.035000	 46.434127	 0.185000	 46.427699	 0.815000	 0.185000	 
1894.000000	 0.005295	 0.035000	 0.005312	 0.965000	 0.035000	 46.385146	 0.185000	 46.378725	 0.815000	 0.185000	 
1896.000000	 0.005223	 0.035000	 0.005240	 0.965000	 0.035000	 46.336268	 0.185000	 46.329854	 0.815000	 0.185000	 
1898.000000	 0.005153	 0.035000	 0.005169	 0.965000	 0.035000	 46.287493	 0.185000	 46.281086	 0.815000	 0.185000	 
1900.000000	 0.005083	 0.035000	 0.005099	 0.965000	 0.035000	 46.238821	 0.185000	 46.232421	 0.815000	 0.185000	 
1902.000000	 0.005014	 0.035000	 0.005030	 0.965000	 0.035000	 46.190251	 0.185000	 46.183858	 0.815000	 0.185000	 
1904.000000	 0.004946	 0.035000	 0.004961	 0.965000	 0.035000	 46.141783	 0.185000	 46.135396	 0.815000	 0.185000	 
1906.000000	 0.004879	 0.035000	 0.004894	 0.965000	 0.035000	 46.093417	 0.185000	 46.087037	 0.815000	 0.185000	 
1908.000000	 0.004813	 0.035000	 0.004827	 0.965000	 0.035000	 46.045151	 0.185000	 46.038778	 0.815000	 0.185000	 
1910.000000	 0.004747	 0.035000	 0.004761	 0.965000	 0.035000	 45.996987	 0.185000	 45.990621	 0.815000	 0.185000	 
1912.000000	 0.004683	 0.035000	 0.004696	 0.965000	 0.035000	 45.948924	 0.185000	 45.942564	 0.815000	 0.185000	 
1914.000000	 0.004619	 0.035000	 0.004632	 0.965000	 0.035000	 45.900961	 0.185000	 45.894607	 0.815000	 0.185000	 
1916.000000	 0.004556	 0.035000	 0.004569	 0.965000	 0.035000	 45.853097	 0.185000	 45.846751	 0.815000	 0.185000	 
1918.000000	 0.004494	 0.035000	 0.004506	 0.965000	 0.035000	 45.805334	 0.185000	 45.798994	 0.815000	 0.185000	 
1920.000000	 0.004432	 0.035000	 0.004444	 0.965000	 0.035000	 45.757670	 0.185000	 45.751336	 0.815000	 0.185000	 
1922.000000	 0.004371	 0.035000	 0.004383	 0.965000	 0.035000	 45.710105	 0.185000	 45.703778	 0.815000	 0.185000	 
1924.000000	 0.004312	 0.035000	 0.004323	 0.965000	 0.035000	 45.662639	 0.185000	 45.656318	 0.815000	 0.185000	 
1926.000000	 0.004252	 0.035000	 0.004264	 0.965000	 0.035000	 45.615271	 0.185000	 45.608957	 0.815000	 0.185000	 
1928.000000	 0.004194	 0.035000	 0.004205	 0.965000	 0.035000	 45.568002	 0.185000	 45.561694	 0.815000	 0.185000	 
1930.000000	 0.004137	 0.035000	 0.004147	 0.965000	 0.035000	 45.520830	 0.185000	 45.514529	 0.815000	 0.185000	 
1932.000000	 0.004080	 0.035000	 0.004090	 0.965000	 0.035000	 45.473756	 0.185000	 45.467462	 0.815000	 0.185000	 
1934.000000	 0.004023	 0.035000	 0.004033	 0.965000	 0.035000	 45.426779	 0.185000	 45.420491	 0.815000	 0.185000	 
1936.000000	 0.003968	 0.035000	 0.003977	 0.965000	 0.035000	 45.379899	 0.185000	 45.373618	 0.815000	 0.185000	 
1938.000000	 0.003913	 0.035000	 0.003922	 0.965000	 0.035000	 45.333116	 0.185000	 45.326841	 0.815000	 0.185000	 
1940.000000	 0.003859	 0.035000	 0.003868	 0.965000	 0.035000	 45.286429	 0.185000	 45.280161	 0.815000	 0.185000	 
1942.000000	 0.003806	 0.035000	 0.003814	 0.965000	 0.035000	 45.239838	 0.185000	 45.233576	 0.815000	 0.185000	 
1944.000000	 0.003753	 0.035000	 0.003762	 0.965000	 0.035000	 45.193343	 0.185000	 45.187088	 0.815000	 0.185000	 
1946.000000	 0.003701	 0.035000	 0.003709	 0.965000	 0.035000	 45.146943	 0.185000	 45.140695	 0.815000	 0.185000	 
1948.000000	 0.003650	 0.035000	 0.003658	 0.965000	 0.035000	 45.100639	 0.185000	 45.094397	 0.815000	 0.185000	 
1950.000000	 0.003599	 0.035000	 0.003607	 0.965000	 0.035000	 45.054430	 0.185000	 45.048193	 0.815000	 0.185000	 
1952.000000	 0.003549	 0.035000	 0.003556	 0.965000	 0.035000	 45.008315	 0.185000	 45.002085	 0.815000	 0.185000	 
1954.000000	 0.003500	 0.035000	 0.003507	 0.965000	 0.035000	 44.962294	 0.185000	 44.956071	 0.815000	 0.185000	 
1956.000000	 0.003451	 0.035000	 0.003458	 0.965000	 0.035000	 44.916367	 0.185000	 44.910150	 0.815000	 0.185000	 
1958.000000	 0.003403	 0.035000	 0.003410	 0.965000	 0.035000	 44.870534	 0.185000	 44.864324	 0.815000	 0.185000	 
1960.000000	 0.003356	 0.035000	 0.003362	 0.965000	 0.035000	 44.824795	 0.185000	 44.818591	 0.815000	 0.185000	 
1962.000000	 0.003309	 0.035000	 0.003315	 0.965000	 0.035000	 44.779149	 0.185000	 44.772951	 0.815000	 0.185000	 
1964.000000	 0.003263	 0.035000	 0.003268	 0.965000	 0.035000	 44.733595	 0.185000	 44.727404	 0.815000	 0.185000	 
1966.000000	 0.003217	 0.035000	 0.003222	 0.965000	 0.035000	 44.688135	 0.185000	 44.681949	 0.815000	 0.185000	 
1968.000000	 0.003172	 0.035000	 0.003177	 0.965000	 0.035000	 44.642766	 0.185000	 44.636587	 0.815000	 0.185000	 
1970.000000	 0.003127	 0.035000	 0.003133	 0.965000	 0.035000	 44.597490	 0.185000	 44.591317	 0.815000	 0.185000	 
1972.000000	 0.003084	 0.035000	 0.003088	 0.965000	 0.035000	 44.552305	 0.185000	 44.546138	 0.815000	 0.185000	 
1974.000000	 0.003040	 0.035000	 0.003045	 0.965000	 0.035000	 44.507211	 0.185000	 44.501051	 0.815000	 0.185000	 
1976.000000	 0.002997	 0.035000	 0.003002	 0.965000	 0.035000	 44.462209	 0.185000	 44.456055	 0.815000	 0.185000	 
1978.000000	 0.002955	 0.035000	 0.002960	 0.965000	 0.035000	 44.417298	 0.185000	 44.411150	 0.815000	 0.185000	 
1980.000000	 0.002914	 0.035000	 0.002918	 0.965000	 0.035000	 44.372478	 0.185000	 44.366336	 0.815000	 0.185000	 
1982.000000	 0.002873	 0.035000	 0.002876	 0.965000	 0.035000	 44.327747	 0.185000	 44.321612	 0.815000	 0.185000	 
1984.000000	 0.002832	 0.035000	 0.002836	 0.965000	 0.035000	 44.283107	 0.185000	 44.276978	 0.815000	 0.185000	 
1986.000000	 0.002792	 0.035000	 0.002796	 0.965000	 0.035000	 44.238557	 0.185000	 44.232434	 0.815000	 0.185000	 
1988.000000	 0.002752	 0.035000	 0.002756	 0.965000	 0.035000	 44.194096	 0.185000	 44.187979	 0.815000	 0.185000	 
1990.000000	 0.002713	 0.035000	 0.002717	 0.965000	 0.035000	 44.149725	 0.185000	 44.143614	 0.815000	 0.185000	 
1992.000000	 0.002675	 0.035000	 0.002678	 0.965000	 0.035000	 44.105442	 0.185000	 44.099338	 0.815000	 0.185000	 
1994.000000	 0.002637	 0.035000	 0.002640	 0.965000	 0.035000	 44.061249	 0.185000	 44.055150	 0.815000	 0.185000	 
1996.000000	 0.002600	 0.035000	 0.002602	 0.965000	 0.035000	 44.017144	 0.185000	 44.011051	 0.815000	 0.185000	 
1998.000000	 0.002563	 0.035000	 0.002565	 0.965000	 0.035000	 43.973127	 0.185000	 43.967040	 0.815000	 0.185000	 
2000.000000	 0.002526	 0.035000	 0.002529	 0.965000	 0.035000	 43.929197	 0.185000	 43.923117	 0.815000	 0.185000	 
2002.000000	 0.002490	 0.035000	 0.002492	 0.965000	 0.035000	 43.885356	 0.185000	 43.879282	 0.815000	 0.185000	 
2004.000000	 0.002455	 0.035000	 0.002457	 0.965000	 0.035000	 43.841602	 0.185000	 43.835534	 0.815000	 0.185000	 
2006.000000	 0.002420	 0.035000	 0.002422	 0.955000	 0.040000	 43.797935	 0.185000	 43.791873	 0.815000	 0.185000	 
2008.000000	 0.002385	 0.035000	 0.002390	 0.955000	 0.040000	 43.754355	 0.185000	 43.748299	 0.815000	 0.185000	 
2010.000000	 0.002351	 0.035000	 0.002358	 0.955000	 0.040000	 43.710862	 0.185000	 43.704812	 0.815000	 0.185000	 
2012.000000	 0.002318	 0.045000	 0.002326	 0.955000	 0.045000	 43.667455	 0.185000	 43.661411	 0.815000	 0.185000	 
2014.000000	 0.002287	 0.045000	 0.002295	 0.955000	 0.045000	 43.624134	 0.185000	 43.618096	 0.815000	 0.185000	 
2016.000000	 0.002256	 0.045000	 0.002265	 0.955000	 0.045000	 43.580900	 0.185000	 43.574868	 0.815000	 0.185000	 
2018.000000	 0.002226	 0.045000	 0.002235	 0.955000	 0.045000	 43.537750	 0.185000	 43.531724	 0.815000	 0.185000	 
2020.000000	 0.002197	 0.045000	 0.002205	 0.955000	 0.045000	 43.494686	 0.185000	 43.488666	 0.815000	 0.185000	 
2022.000000	 0.002167	 0.045000	 0.002175	 0.955000	 0.045000	 43.451708	 0.185000	 43.445693	 0.815000	 0.185000	 
2024.000000	 0.002138	 0.045000	 0.002146	 0.955000	 0.045000	 43.408814	 0.185000	 43.402805	 0.815000	 0.185000	 
2026.000000	 0.002110	 0.045000	 0.002117	 0.955000	 0.045000	 43.366004	 0.185000	 43.360002	 0.815000	 0.185000	 
2028.000000	 0.002082	 0.045000	 0.002089	 0.955000	 0.045000	 43.323279	 0.185000	 43.317283	 0.815000	 0.185000	 
2030.000000	 0.002054	 0.045000	 0.002061	 0.955000	 0.045000	 43.280638	 0.185000	 43.274648	 0.815000	 0.185000	 
2032.000000	 0.002026	 0.045000	 0.002033	 0.955000	 0.045000	 43.238081	 0.185000	 43.232097	 0.815000	 0.185000	 
2034.000000	 0.001999	 0.045000	 0.002006	 0.955000	 0.045000	 43.195608	 0.185000	 43.189629	 0.815000	 0.185000	 
2036.000000	 0.001972	 0.045000	 0.001978	 0.955000	 0.045000	 43.153218	 0.185000	 43.147245	 0.815000	 0.185000	 
2038.000000	 0.001945	 0.045000	 0.001952	 0.955000	 0.045000	 43.110911	 0.185000	 43.104944	 0.815000	 0.185000	 
2040.000000	 0.001919	 0.045000	 0.001925	 0.955000	 0.045000	 43.068687	 0.185000	 43.062726	 0.815000	 0.185000	 
2042.000000	 0.001893	 0.045000	 0.001899	 0.955000	 0.045000	 43.026545	 0.185000	 43.020590	 0.815000	 0.185000	 
2044.000000	 0.001868	 0.045000	 0.001873	 0.955000	 0.045000	 42.984486	 0.185000	 42.978537	 0.815000	 0.185000	 
2046.000000	 0.001842	 0.045000	 0.001848	 0.955000	 0.045000	 42.942509	 0.185000	 42.936566	 0.815000	 0.185000	 
2048.000000	 0.001817	 0.045000	 0.001823	 0.955000	 0.045000	 42.900614	 0.185000	 42.894676	 0.815000	 0.185000	 
2050.000000	 0.001793	 0.045000	 0.001798	 0.955000	 0.045000	 42.858801	 0.185000	 42.852869	 0.815000	 0.185000	 
